Time[ps]     GFree[eV]    Etot[eV]     Epot[eV]     Ekin[eV]    T[K]      -----stress [GPa] --------     ----- BOX [A] ------ 
0.0010        -209.7453     -230.75      -293.73        62.98   250.6     -0.340     -0.488     -0.270   19.982   20.349   41.379
0.0020        -209.6297     -230.63      -293.47        62.84   250.1     -0.173     -0.450     -0.249   19.982   20.349   41.379
0.0030        -209.6863     -230.69      -294.69        64.00   254.7     -0.014     -0.333     -0.232   19.982   20.349   41.379
0.0040        -209.6813     -230.68      -295.57        64.88   258.2      0.032     -0.203     -0.237   19.982   20.349   41.379
0.0050        -209.6618     -230.66      -294.84        64.18   255.4     -0.061     -0.114     -0.276   19.982   20.349   41.379
0.0060        -209.6800     -230.68      -293.98        63.30   251.9     -0.232     -0.096     -0.326   19.982   20.349   41.379
0.0070        -209.6798     -230.68      -294.38        63.70   253.5     -0.387     -0.161     -0.354   19.982   20.349   41.379
0.0080        -209.6752     -230.68      -295.11        64.43   256.4     -0.478     -0.290     -0.351   19.982   20.349   41.379
0.0090        -209.7047     -230.71      -294.65        63.94   254.5     -0.504     -0.436     -0.350   19.982   20.349   41.379
0.0100        -209.7313     -230.73      -293.26        62.53   248.8     -0.455     -0.539     -0.349   19.982   20.349   41.379
0.0110        -209.7415     -230.74      -292.88        62.14   247.3     -0.323     -0.563     -0.315   19.982   20.349   41.379
0.0120        -209.7836     -230.79      -294.17        63.38   252.2     -0.162     -0.507     -0.232   19.982   20.349   41.379
0.0130        -209.8109     -230.81      -295.27        64.46   256.5     -0.084     -0.407     -0.139   19.982   20.349   41.379
0.0140        -209.7826     -230.79      -294.72        63.94   254.4     -0.145     -0.300     -0.089   19.982   20.349   41.379
0.0150        -209.7292     -230.73      -294.04        63.31   251.9     -0.301     -0.224     -0.096   19.982   20.349   41.379
0.0160        -209.7088     -230.71      -294.80        64.08   255.0     -0.447     -0.214     -0.141   19.982   20.350   41.379
0.0170        -209.6672     -230.67      -295.80        65.13   259.2     -0.521     -0.291     -0.218   19.982   20.350   41.379
0.0180        -209.6450     -230.65      -295.50        64.85   258.1     -0.522     -0.425     -0.322   19.982   20.350   41.379
0.0190        -209.6417     -230.65      -294.09        63.44   252.5     -0.454     -0.549     -0.417   19.982   20.350   41.379
0.0200        -209.6597     -230.66      -293.46        62.79   249.9     -0.322     -0.606     -0.459   19.982   20.350   41.379
0.0210        -209.6684     -230.67      -294.43        63.75   253.7     -0.169     -0.569     -0.423   19.982   20.350   41.379
0.0220        -209.6698     -230.67      -295.41        64.74   257.6     -0.077     -0.448     -0.339   19.982   20.350   41.379
0.0230        -209.6198     -230.62      -294.95        64.33   256.0     -0.098     -0.294     -0.271   19.982   20.350   41.379
0.0240        -209.6819     -230.69      -294.27        63.58   253.0     -0.187     -0.159     -0.257   19.982   20.350   41.379
0.0250        -209.7795     -230.78      -294.83        64.05   254.9     -0.270     -0.093     -0.294   19.982   20.350   41.380
0.0260        -209.8099     -230.82      -295.93        65.12   259.1     -0.318     -0.122     -0.360   19.982   20.350   41.380
0.0270        -209.7283     -230.73      -296.00        65.27   259.7     -0.355     -0.235     -0.435   19.982   20.350   41.380
0.0280        -209.7426     -230.75      -294.77        64.02   254.8     -0.381     -0.382     -0.489   19.982   20.350   41.380
0.0290        -209.8154     -230.82      -293.62        62.80   249.9     -0.363     -0.497     -0.488   19.982   20.350   41.380
0.0300        -209.6842     -230.69      -293.88        63.19   251.5     -0.295     -0.536     -0.413   19.982   20.350   41.380
0.0310        -209.5678     -230.57      -294.89        64.32   256.0     -0.213     -0.484     -0.291   19.982   20.350   41.380
0.0320        -209.6326     -230.64      -294.98        64.34   256.0     -0.173     -0.369     -0.186   19.982   20.350   41.380
0.0330        -209.6634     -230.67      -294.24        63.56   253.0     -0.192     -0.248     -0.145   19.982   20.350   41.380
0.0340        -209.7928     -230.80      -294.48        63.68   253.4     -0.245     -0.159     -0.145   19.982   20.351   41.380
0.0350        -209.8166     -230.82      -295.72        64.90   258.3     -0.318     -0.136     -0.167   19.982   20.351   41.380
0.0360        -209.7053     -230.71      -296.52        65.81   261.9     -0.397     -0.185     -0.206   19.982   20.351   41.380
0.0370        -209.7820     -230.79      -296.11        65.32   260.0     -0.449     -0.293     -0.281   19.982   20.351   41.381
0.0380        -209.7904     -230.80      -294.83        64.03   254.8     -0.440     -0.402     -0.370   19.982   20.351   41.381
0.0390        -209.8338     -230.84      -294.60        63.75   253.7     -0.352     -0.442     -0.424   19.983   20.351   41.381
0.0400        -210.0584     -231.07      -295.80        64.73   257.6     -0.224     -0.395     -0.428   19.983   20.351   41.381
0.0410        -210.1387     -231.15      -296.30        65.16   259.3     -0.117     -0.303     -0.396   19.983   20.351   41.381
0.0420        -210.1028     -231.11      -295.59        64.47   256.6     -0.065     -0.218     -0.352   19.983   20.351   41.381
0.0430        -209.9846     -230.99      -295.01        64.02   254.8     -0.075     -0.151     -0.301   19.983   20.351   41.381
0.0440        -209.8048     -230.81      -295.50        64.68   257.4     -0.144     -0.095     -0.267   19.983   20.351   41.381
0.0450        -209.8063     -230.82      -296.55        65.74   261.6     -0.247     -0.070     -0.279   19.983   20.351   41.382
0.0460        -209.9221     -230.93      -296.68        65.75   261.6     -0.336     -0.124     -0.353   19.983   20.352   41.382
0.0470        -210.0904     -231.10      -295.71        64.61   257.1     -0.365     -0.243     -0.440   19.983   20.352   41.382
0.0480        -210.0609     -231.07      -294.97        63.90   254.3     -0.339     -0.366     -0.495   19.983   20.352   41.382
0.0490        -209.9106     -230.92      -295.38        64.46   256.5     -0.281     -0.418     -0.481   19.983   20.352   41.382
0.0500        -210.0259     -231.04      -295.98        64.94   258.4     -0.214     -0.380     -0.398   19.983   20.352   41.382
0.0510        -210.0650     -231.08      -295.55        64.47   256.6     -0.181     -0.302     -0.294   19.983   20.352   41.382
0.0520        -209.8735     -230.89      -294.88        63.99   254.7     -0.200     -0.187     -0.196   19.983   20.352   41.383
0.0530        -209.8413     -230.85      -295.04        64.18   255.4     -0.268     -0.062     -0.142   19.983   20.352   41.383
0.0540        -209.8577     -230.87      -295.72        64.85   258.1     -0.358      0.008     -0.144   19.983   20.352   41.383
0.0550        -209.9119     -230.92      -296.27        65.34   260.0     -0.415     -0.052     -0.192   19.983   20.352   41.383
0.0560        -210.0074     -231.02      -295.99        64.97   258.6     -0.401     -0.237     -0.266   19.983   20.352   41.383
0.0570        -210.0831     -231.10      -295.35        64.25   255.7     -0.328     -0.443     -0.333   19.983   20.352   41.383
0.0580        -210.0606     -231.07      -295.39        64.31   255.9     -0.244     -0.565     -0.372   19.984   20.353   41.384
0.0590        -209.9043     -230.92      -295.59        64.67   257.4     -0.179     -0.572     -0.371   19.984   20.353   41.384
0.0600        -209.6467     -230.66      -295.04        64.38   256.2     -0.136     -0.492     -0.331   19.984   20.353   41.384
0.0610        -209.7667     -230.78      -294.82        64.03   254.8     -0.113     -0.347     -0.271   19.984   20.353   41.384
0.0620        -209.7626     -230.78      -294.96        64.18   255.4     -0.141     -0.173     -0.242   19.984   20.353   41.384
0.0630        -209.6233     -230.64      -295.16        64.52   256.8     -0.209     -0.033     -0.269   19.984   20.353   41.385
0.0640        -209.4696     -230.49      -295.29        64.81   257.9     -0.271     -0.014     -0.355   19.984   20.353   41.385
0.0650        -209.6107     -230.63      -295.38        64.76   257.7     -0.264     -0.132     -0.457   19.984   20.353   41.385
0.0660        -209.6120     -230.63      -295.11        64.48   256.6     -0.207     -0.322     -0.534   19.984   20.353   41.385
0.0670        -209.6065     -230.62      -295.20        64.58   257.0     -0.151     -0.469     -0.561   19.984   20.353   41.385
0.0680        -209.6130     -230.63      -295.38        64.75   257.7     -0.134     -0.506     -0.533   19.984   20.354   41.386
0.0690        -209.5604     -230.58      -294.94        64.36   256.1     -0.150     -0.422     -0.455   19.984   20.354   41.386
0.0700        -209.6544     -230.67      -294.83        64.16   255.3     -0.189     -0.234     -0.359   19.984   20.354   41.386
0.0710        -209.7214     -230.74      -295.38        64.64   257.3     -0.278      0.001     -0.279   19.984   20.354   41.386
0.0720        -209.7056     -230.73      -295.80        65.07   259.0     -0.414      0.182     -0.228   19.984   20.354   41.387
0.0730        -209.6696     -230.69      -295.77        65.08   259.0     -0.537      0.202     -0.208   19.984   20.354   41.387
0.0740        -209.6117     -230.63      -295.53        64.90   258.3     -0.573      0.033     -0.209   19.985   20.354   41.387
0.0750        -209.5370     -230.56      -295.48        64.93   258.4     -0.506     -0.237     -0.214   19.985   20.354   41.387
0.0760        -209.5831     -230.60      -295.96        65.36   260.1     -0.391     -0.476     -0.216   19.985   20.354   41.388
0.0770        -209.4326     -230.45      -295.98        65.53   260.8     -0.301     -0.593     -0.222   19.985   20.355   41.388
0.0780        -209.3178     -230.34      -295.28        64.94   258.5     -0.244     -0.561     -0.233   19.985   20.355   41.388
0.0790        -209.4929     -230.52      -295.13        64.62   257.2     -0.207     -0.405     -0.233   19.985   20.355   41.388
0.0800        -209.5318     -230.56      -295.89        65.33   260.0     -0.219     -0.187     -0.216   19.985   20.355   41.389
0.0810        -209.6014     -230.63      -296.68        66.06   262.9     -0.283      0.014     -0.196   19.985   20.355   41.389
0.0820        -209.6455     -230.67      -296.68        66.01   262.7     -0.362      0.104     -0.214   19.985   20.355   41.389
0.0830        -209.6015     -230.63      -296.40        65.78   261.8     -0.377      0.043     -0.284   19.985   20.355   41.389
0.0840        -209.5269     -230.55      -296.55        66.00   262.7     -0.296     -0.127     -0.374   19.985   20.355   41.390
0.0850        -209.5720     -230.60      -297.24        66.64   265.2     -0.174     -0.313     -0.445   19.986   20.355   41.390
0.0860        -209.5298     -230.56      -297.18        66.62   265.1     -0.104     -0.440     -0.489   19.986   20.356   41.390
0.0870        -209.6436     -230.67      -296.13        65.46   260.5     -0.099     -0.429     -0.482   19.986   20.356   41.391
0.0880        -209.6739     -230.70      -295.25        64.55   256.9     -0.167     -0.293     -0.439   19.986   20.356   41.391
0.0890        -209.6926     -230.72      -295.56        64.84   258.0     -0.295     -0.074     -0.360   19.986   20.356   41.391
0.0900        -209.6488     -230.68      -295.93        65.25   259.7     -0.466      0.129     -0.277   19.986   20.356   41.391
0.0910        -209.6841     -230.71      -295.46        64.75   257.7     -0.618      0.218     -0.223   19.986   20.356   41.392
0.0920        -209.8309     -230.86      -294.72        63.86   254.1     -0.668      0.141     -0.215   19.986   20.356   41.392
0.0930        -209.8605     -230.89      -294.50        63.61   253.2     -0.580     -0.074     -0.230   19.986   20.356   41.392
0.0940        -209.6863     -230.72      -294.83        64.11   255.1     -0.407     -0.346     -0.240   19.986   20.356   41.393
0.0950        -209.5596     -230.59      -294.83        64.24   255.6     -0.253     -0.567     -0.237   19.986   20.356   41.393
0.0960        -209.6085     -230.64      -293.62        62.98   250.6     -0.183     -0.653     -0.220   19.987   20.357   41.393
0.0970        -209.5744     -230.61      -292.17        61.57   245.0     -0.214     -0.591     -0.196   19.987   20.357   41.394
0.0980        -209.5253     -230.56      -292.32        61.76   245.8     -0.309     -0.411     -0.152   19.987   20.357   41.394
0.0990        -209.5848     -230.62      -293.44        62.82   250.0     -0.428     -0.192     -0.118   19.987   20.357   41.394
0.1000        -209.6315     -230.67      -293.66        62.99   250.7     -0.527     -0.034     -0.137   19.987   20.357   41.395
0.1010        -209.5863     -230.62      -293.00        62.38   248.3     -0.545     -0.013     -0.228   19.987   20.357   41.395
0.1020        -209.7056     -230.74      -293.26        62.52   248.8     -0.432     -0.113     -0.330   19.987   20.357   41.395
0.1030        -209.6690     -230.70      -294.53        63.83   254.0     -0.240     -0.279     -0.380   19.987   20.357   41.395
0.1040        -209.6810     -230.72      -295.75        65.03   258.8     -0.080     -0.441     -0.369   19.988   20.357   41.396
0.1050        -209.7284     -230.76      -295.56        64.79   257.8     -0.029     -0.518     -0.309   19.988   20.358   41.396
0.1060        -209.7208     -230.76      -294.59        63.83   254.0     -0.093     -0.482     -0.248   19.988   20.358   41.396
0.1070        -209.6522     -230.69      -294.63        63.94   254.4     -0.227     -0.325     -0.201   19.988   20.358   41.397
0.1080        -209.5730     -230.61      -295.62        65.01   258.7     -0.378     -0.109     -0.184   19.988   20.358   41.397
0.1090        -209.6517     -230.69      -296.13        65.44   260.4     -0.494      0.047     -0.225   19.988   20.358   41.397
0.1100        -209.6802     -230.72      -295.68        64.96   258.5     -0.527      0.056     -0.300   19.988   20.358   41.398
0.1110        -209.7674     -230.81      -295.56        64.75   257.7     -0.447     -0.084     -0.343   19.989   20.358   41.398
0.1120        -209.9382     -230.98      -296.32        65.34   260.0     -0.287     -0.297     -0.304   19.989   20.358   41.398
0.1130        -210.0123     -231.05      -297.12        66.06   262.9     -0.144     -0.486     -0.199   19.989   20.359   41.399
0.1140        -210.0143     -231.06      -296.87        65.81   261.9     -0.097     -0.571     -0.076   19.989   20.359   41.399
0.1150        -209.9468     -230.99      -295.51        64.52   256.8     -0.159     -0.535      0.006   19.989   20.359   41.399
0.1160        -209.8751     -230.92      -294.53        63.61   253.2     -0.280     -0.398      0.031   19.989   20.359   41.400
0.1170        -209.7220     -230.77      -294.47        63.71   253.5     -0.410     -0.225     -0.001   19.989   20.359   41.400
0.1180        -209.7412     -230.78      -294.56        63.78   253.8     -0.503     -0.117     -0.092   19.990   20.359   41.400
0.1190        -209.8756     -230.92      -294.12        63.20   251.5     -0.518     -0.144     -0.207   19.990   20.359   41.401
0.1200        -209.8404     -230.89      -293.48        62.59   249.1     -0.442     -0.295     -0.290   19.990   20.359   41.401
0.1210        -209.8350     -230.88      -293.47        62.59   249.1     -0.296     -0.486     -0.302   19.990   20.360   41.401
0.1220        -209.7857     -230.83      -293.81        62.98   250.6     -0.152     -0.634     -0.256   19.990   20.360   41.402
0.1230        -209.8582     -230.91      -293.98        63.08   251.0     -0.059     -0.665     -0.176   19.990   20.360   41.402
0.1240        -209.7865     -230.83      -293.43        62.59   249.1     -0.043     -0.576     -0.123   19.991   20.360   41.402
0.1250        -209.7982     -230.85      -292.95        62.10   247.1     -0.096     -0.388     -0.130   19.991   20.360   41.403
0.1260        -209.7176     -230.77      -292.87        62.10   247.1     -0.190     -0.158     -0.194   19.991   20.360   41.403
0.1270        -209.7313     -230.78      -293.20        62.42   248.4     -0.287      0.020     -0.296   19.991   20.360   41.403
0.1280        -209.7307     -230.78      -293.51        62.73   249.7     -0.348      0.054     -0.394   19.991   20.361   41.403
0.1290        -209.7777     -230.83      -293.67        62.84   250.1     -0.353     -0.081     -0.438   19.991   20.361   41.404
0.1300        -209.7576     -230.81      -293.74        62.93   250.4     -0.303     -0.308     -0.399   19.991   20.361   41.404
0.1310        -209.8165     -230.87      -294.36        63.49   252.7     -0.222     -0.496     -0.285   19.992   20.361   41.404
0.1320        -209.8203     -230.87      -295.13        64.26   255.7     -0.165     -0.546     -0.141   19.992   20.361   41.405
0.1330        -209.8215     -230.88      -295.44        64.57   257.0     -0.175     -0.451     -0.032   19.992   20.361   41.405
0.1340        -209.7856     -230.84      -295.20        64.36   256.1     -0.246     -0.269      0.014   19.992   20.362   41.405
0.1350        -209.6581     -230.71      -294.77        64.05   254.9     -0.338     -0.087     -0.007   19.992   20.362   41.406
0.1360        -209.6719     -230.73      -294.72        64.00   254.7     -0.394      0.015     -0.072   19.992   20.362   41.406
0.1370        -209.7412     -230.80      -295.08        64.28   255.8     -0.390     -0.028     -0.142   19.993   20.362   41.406
0.1380        -209.7487     -230.80      -295.22        64.42   256.3     -0.331     -0.214     -0.197   19.993   20.362   41.407
0.1390        -209.7889     -230.85      -295.00        64.16   255.3     -0.225     -0.453     -0.225   19.993   20.362   41.407
0.1400        -209.9540     -231.01      -295.17        64.16   255.3     -0.100     -0.623     -0.208   19.993   20.363   41.407
0.1410        -209.9385     -231.00      -295.56        64.56   256.9     -0.009     -0.647     -0.141   19.993   20.363   41.408
0.1420        -209.8357     -230.89      -295.72        64.83   258.0     -0.004     -0.547     -0.081   19.994   20.363   41.408
0.1430        -209.8576     -230.92      -295.54        64.63   257.2     -0.058     -0.353     -0.038   19.994   20.363   41.408
0.1440        -209.8570     -230.92      -294.98        64.06   255.0     -0.139     -0.152     -0.062   19.994   20.363   41.409
0.1450        -209.8479     -230.91      -294.57        63.67   253.4     -0.214     -0.004     -0.154   19.994   20.363   41.409
0.1460        -209.8473     -230.91      -294.75        63.85   254.1     -0.264      0.046     -0.279   19.994   20.364   41.409
0.1470        -209.8229     -230.88      -295.04        64.16   255.3     -0.275     -0.023     -0.397   19.994   20.364   41.409
0.1480        -209.7609     -230.82      -294.77        63.95   254.5     -0.244     -0.193     -0.467   19.994   20.364   41.410
0.1490        -209.8813     -230.94      -294.56        63.62   253.2     -0.170     -0.379     -0.435   19.995   20.364   41.410
0.1500        -209.8370     -230.90      -294.71        63.81   253.9     -0.098     -0.485     -0.312   19.995   20.364   41.410
0.1510        -209.7001     -230.76      -295.17        64.40   256.3     -0.069     -0.457     -0.159   19.995   20.364   41.411
0.1520        -209.5651     -230.63      -295.36        64.73   257.6     -0.089     -0.322     -0.028   19.995   20.365   41.411
0.1530        -209.5986     -230.66      -294.98        64.32   256.0     -0.140     -0.173      0.030   19.995   20.365   41.411
0.1540        -209.6577     -230.72      -294.47        63.75   253.7     -0.199     -0.085      0.005   19.995   20.365   41.412
0.1550        -209.7049     -230.77      -294.60        63.83   254.0     -0.244     -0.082     -0.079   19.996   20.365   41.412
0.1560        -209.7305     -230.80      -294.92        64.13   255.2     -0.264     -0.176     -0.201   19.996   20.365   41.412
0.1570        -209.7379     -230.80      -294.49        63.68   253.4     -0.251     -0.342     -0.310   19.996   20.366   41.413
0.1580        -209.7031     -230.77      -293.64        62.87   250.2     -0.202     -0.507     -0.357   19.996   20.366   41.413
0.1590        -209.7311     -230.80      -293.59        62.79   249.9     -0.127     -0.576     -0.311   19.996   20.366   41.413
0.1600        -209.6845     -230.75      -294.06        63.31   251.9     -0.051     -0.518     -0.196   19.996   20.366   41.414
0.1610        -209.5856     -230.65      -294.09        63.43   252.4      0.009     -0.382     -0.078   19.997   20.366   41.414
0.1620        -209.5959     -230.67      -293.50        62.84   250.1      0.039     -0.248     -0.025   19.997   20.367   41.414
0.1630        -209.6314     -230.70      -293.07        62.37   248.2      0.043     -0.155     -0.054   19.997   20.367   41.414
0.1640        -209.7346     -230.80      -293.66        62.86   250.2      0.022     -0.109     -0.165   19.997   20.367   41.415
0.1650        -209.7240     -230.79      -294.36        63.57   253.0     -0.029     -0.125     -0.353   19.997   20.367   41.415
0.1660        -209.7223     -230.79      -293.99        63.19   251.5     -0.087     -0.211     -0.549   19.997   20.367   41.415
0.1670        -209.6696     -230.74      -293.03        62.29   247.9     -0.118     -0.344     -0.661   19.997   20.368   41.416
0.1680        -209.6186     -230.69      -293.18        62.49   248.7     -0.099     -0.436     -0.628   19.998   20.368   41.416
0.1690        -209.7010     -230.77      -294.39        63.61   253.2     -0.043     -0.408     -0.472   19.998   20.368   41.416
0.1700        -209.5995     -230.67      -294.80        64.13   255.2      0.000     -0.286     -0.301   19.998   20.368   41.417
0.1710        -209.4384     -230.51      -294.26        63.74   253.7     -0.002     -0.130     -0.188   19.998   20.368   41.417
0.1720        -209.4577     -230.53      -294.23        63.70   253.5     -0.037      0.021     -0.135   19.998   20.369   41.417
0.1730        -209.5534     -230.63      -295.41        64.78   257.8     -0.097      0.122     -0.141   19.998   20.369   41.418
0.1740        -209.5906     -230.67      -296.61        65.95   262.4     -0.181      0.121     -0.212   19.998   20.369   41.418
0.1750        -209.6239     -230.70      -296.44        65.74   261.6     -0.266     -0.004     -0.317   19.999   20.369   41.418
0.1760        -209.5978     -230.67      -295.41        64.74   257.6     -0.316     -0.210     -0.392   19.999   20.369   41.419
0.1770        -209.6659     -230.74      -295.41        64.66   257.3     -0.298     -0.393     -0.386   19.999   20.370   41.419
0.1780        -209.7836     -230.86      -296.16        65.29   259.8     -0.218     -0.467     -0.302   19.999   20.370   41.420
0.1790        -209.7912     -230.87      -295.91        65.04   258.8     -0.115     -0.418     -0.205   19.999   20.370   41.420
0.1800        -209.6241     -230.70      -294.57        63.87   254.2     -0.031     -0.287     -0.149   19.999   20.370   41.420
0.1810        -209.5625     -230.64      -293.86        63.22   251.6      0.030     -0.108     -0.125   19.999   20.370   41.421
0.1820        -209.7117     -230.79      -294.37        63.58   253.0      0.046      0.064     -0.138   19.999   20.371   41.421
0.1830        -209.7383     -230.82      -294.74        63.92   254.4     -0.020      0.162     -0.205   20.000   20.371   41.421
0.1840        -209.6978     -230.78      -293.93        63.16   251.3     -0.145      0.134     -0.320   20.000   20.371   41.422
0.1850        -209.6376     -230.72      -292.56        61.84   246.1     -0.258     -0.024     -0.432   20.000   20.371   41.422
0.1860        -209.6518     -230.73      -292.35        61.62   245.2     -0.302     -0.233     -0.480   20.000   20.371   41.422
0.1870        -209.6917     -230.77      -293.04        62.27   247.8     -0.283     -0.379     -0.455   20.000   20.371   41.423
0.1880        -209.7440     -230.83      -292.82        61.99   246.7     -0.225     -0.387     -0.401   20.000   20.372   41.423
0.1890        -209.5667     -230.65      -291.53        60.88   242.3     -0.157     -0.263     -0.355   20.000   20.372   41.424
0.1900        -209.5392     -230.62      -291.44        60.81   242.0     -0.086     -0.042     -0.283   20.000   20.372   41.424
0.1910        -209.6765     -230.76      -292.86        62.10   247.1     -0.061      0.192     -0.180   20.001   20.372   41.424
0.1920        -209.6880     -230.77      -293.83        63.06   250.9     -0.134      0.324     -0.108   20.001   20.372   41.425
0.1930        -209.6421     -230.73      -293.48        62.75   249.7     -0.267      0.277     -0.099   20.001   20.373   41.425
0.1940        -209.5487     -230.63      -293.07        62.44   248.5     -0.372      0.043     -0.131   20.001   20.373   41.426
0.1950        -209.4611     -230.55      -294.09        63.54   252.9     -0.396     -0.275     -0.162   20.001   20.373   41.426
0.1960        -209.5225     -230.61      -295.60        64.99   258.7     -0.350     -0.530     -0.177   20.001   20.373   41.426
0.1970        -209.4942     -230.58      -295.50        64.92   258.3     -0.275     -0.614     -0.195   20.001   20.373   41.427
0.1980        -209.4189     -230.51      -294.35        63.84   254.1     -0.186     -0.484     -0.203   20.001   20.373   41.427
0.1990        -209.4933     -230.58      -294.48        63.90   254.3     -0.100     -0.185     -0.169   20.001   20.374   41.428
0.2000        -209.6111     -230.70      -295.98        65.28   259.8     -0.062      0.162     -0.095   20.002   20.374   41.428
0.2010        -209.5304     -230.62      -296.52        65.90   262.3     -0.115      0.405     -0.036   20.002   20.374   41.428
0.2020        -209.4356     -230.52      -295.34        64.82   258.0     -0.222      0.432     -0.038   20.002   20.374   41.429
0.2030        -209.4341     -230.52      -294.45        63.93   254.4     -0.293      0.228     -0.096   20.002   20.374   41.429
0.2040        -209.5368     -230.63      -295.46        64.83   258.0     -0.278     -0.107     -0.174   20.002   20.374   41.429
0.2050        -209.6194     -230.71      -296.75        66.04   262.8     -0.213     -0.419     -0.253   20.002   20.375   41.430
0.2060        -209.5763     -230.67      -296.14        65.48   260.6     -0.156     -0.571     -0.335   20.002   20.375   41.430
0.2070        -209.4538     -230.54      -294.32        63.77   253.8     -0.120     -0.492     -0.389   20.002   20.375   41.431
0.2080        -209.4801     -230.57      -293.88        63.31   252.0     -0.096     -0.203     -0.362   20.003   20.375   41.431
0.2090        -209.5518     -230.64      -295.19        64.54   256.9     -0.103      0.170     -0.251   20.003   20.375   41.431
0.2100        -209.5434     -230.64      -295.69        65.06   258.9     -0.165      0.442     -0.130   20.003   20.375   41.432
0.2110        -209.4825     -230.57      -294.22        63.65   253.3     -0.257      0.480     -0.064   20.003   20.376   41.432
0.2120        -209.4729     -230.56      -293.13        62.56   249.0     -0.314      0.274     -0.051   20.003   20.376   41.432
0.2130        -209.5565     -230.65      -294.35        63.70   253.5     -0.311     -0.069     -0.069   20.003   20.376   41.433
0.2140        -209.6015     -230.69      -296.01        65.31   259.9     -0.287     -0.391     -0.123   20.003   20.376   41.433
0.2150        -209.5378     -230.63      -295.68        65.05   258.9     -0.285     -0.563     -0.221   20.003   20.376   41.434
0.2160        -209.4110     -230.50      -294.08        63.57   253.0     -0.285     -0.510     -0.310   20.004   20.376   41.434
0.2170        -209.3589     -230.45      -293.83        63.37   252.2     -0.260     -0.237     -0.317   20.004   20.376   41.434
0.2180        -209.4832     -230.58      -295.39        64.82   257.9     -0.227      0.144     -0.241   20.004   20.376   41.435
0.2190        -209.6007     -230.70      -296.12        65.42   260.4     -0.223      0.445     -0.141   20.004   20.377   41.435
0.2200        -209.6487     -230.74      -294.80        64.06   254.9     -0.244      0.522     -0.079   20.004   20.377   41.436
0.2210        -209.6424     -230.74      -293.58        62.84   250.1     -0.233      0.362     -0.061   20.004   20.377   41.436
0.2220        -209.5432     -230.64      -294.40        63.76   253.7     -0.171      0.054     -0.084   20.004   20.377   41.436
0.2230        -209.6040     -230.70      -296.05        65.35   260.0     -0.098     -0.267     -0.158   20.004   20.377   41.437
0.2240        -209.6573     -230.75      -295.91        65.16   259.3     -0.067     -0.478     -0.296   20.005   20.377   41.437
0.2250        -209.5555     -230.65      -294.17        63.51   252.8     -0.069     -0.482     -0.441   20.005   20.377   41.437
0.2260        -209.5241     -230.62      -293.61        62.99   250.7     -0.075     -0.251     -0.494   20.005   20.377   41.438
0.2270        -209.6017     -230.70      -295.05        64.36   256.1     -0.105      0.117     -0.420   20.005   20.378   41.438
0.2280        -209.6634     -230.76      -295.80        65.04   258.8     -0.186      0.440     -0.274   20.005   20.378   41.439
0.2290        -209.6866     -230.78      -294.33        63.54   252.9     -0.293      0.553     -0.136   20.005   20.378   41.439
0.2300        -209.6825     -230.78      -292.82        62.04   246.9     -0.350      0.423     -0.031   20.005   20.378   41.439
0.2310        -209.7114     -230.81      -293.53        62.72   249.6     -0.324      0.125      0.021   20.005   20.378   41.440
0.2320        -209.7501     -230.85      -295.09        64.24   255.6     -0.254     -0.200     -0.014   20.006   20.378   41.440
0.2330        -209.7531     -230.85      -294.95        64.10   255.1     -0.209     -0.426     -0.160   20.006   20.378   41.440
0.2340        -209.6924     -230.79      -293.40        62.61   249.2     -0.210     -0.460     -0.334   20.006   20.378   41.441
0.2350        -209.6785     -230.78      -293.00        62.22   247.6     -0.241     -0.283     -0.394   20.006   20.378   41.441
0.2360        -209.7657     -230.87      -294.57        63.70   253.5     -0.298      0.016     -0.292   20.006   20.378   41.442
0.2370        -209.8808     -230.98      -295.57        64.59   257.1     -0.373      0.276     -0.106   20.006   20.378   41.442
0.2380        -209.9111     -231.01      -294.39        63.38   252.2     -0.421      0.373      0.048   20.006   20.378   41.442
0.2390        -209.8604     -230.96      -293.14        62.18   247.4     -0.380      0.284      0.113   20.006   20.378   41.443
0.2400        -209.7733     -230.87      -293.86        62.99   250.7     -0.245      0.076      0.090   20.007   20.379   41.443
0.2410        -209.8532     -230.95      -295.37        64.42   256.4     -0.094     -0.169     -0.031   20.007   20.379   41.443
0.2420        -209.8771     -230.98      -295.28        64.30   255.9     -0.016     -0.358     -0.232   20.007   20.379   41.444
0.2430        -209.8502     -230.95      -294.13        63.17   251.4     -0.031     -0.402     -0.429   20.007   20.379   41.444
0.2440        -209.7672     -230.87      -294.03        63.16   251.3     -0.104     -0.260     -0.496   20.007   20.379   41.445
0.2450        -209.7749     -230.88      -295.50        64.62   257.2     -0.194     -0.003     -0.394   20.007   20.379   41.445
0.2460        -209.7439     -230.85      -296.22        65.37   260.2     -0.271      0.231     -0.212   20.007   20.379   41.445
0.2470        -209.6219     -230.73      -294.91        64.19   255.4     -0.298      0.336     -0.075   20.007   20.379   41.446
0.2480        -209.5861     -230.69      -293.83        63.14   251.3     -0.244      0.287     -0.037   20.008   20.379   41.446
0.2490        -209.6440     -230.75      -294.59        63.84   254.1     -0.129      0.114     -0.075   20.008   20.379   41.446
0.2500        -209.7054     -230.81      -295.61        64.80   257.9     -0.025     -0.116     -0.165   20.008   20.379   41.447
0.2510        -209.6659     -230.77      -295.22        64.45   256.5     -0.002     -0.316     -0.303   20.008   20.379   41.447
0.2520        -209.6213     -230.73      -294.22        63.49   252.7     -0.064     -0.388     -0.427   20.008   20.379   41.448
0.2530        -209.5999     -230.71      -294.16        63.46   252.5     -0.168     -0.293     -0.439   20.008   20.379   41.448
0.2540        -209.6417     -230.75      -295.38        64.64   257.2     -0.271     -0.082     -0.312   20.008   20.379   41.448
0.2550        -209.6665     -230.77      -296.08        65.31   259.9     -0.346      0.134     -0.134   20.009   20.379   41.449
0.2560        -209.5946     -230.70      -294.92        64.22   255.6     -0.362      0.259     -0.015   20.009   20.379   41.449
0.2570        -209.5865     -230.69      -293.93        63.24   251.7     -0.298      0.242      0.005   20.009   20.379   41.449
0.2580        -209.6957     -230.80      -294.79        63.99   254.6     -0.172      0.091     -0.031   20.009   20.379   41.450
0.2590        -209.6573     -230.76      -295.57        64.80   257.9     -0.062     -0.155     -0.105   20.009   20.379   41.450
0.2600        -209.5833     -230.69      -294.84        64.15   255.3     -0.021     -0.399     -0.211   20.009   20.379   41.451
0.2610        -209.8258     -230.93      -294.02        63.09   251.1     -0.043     -0.522     -0.312   20.009   20.379   41.451
0.2620        -209.5013     -230.61      -293.66        63.05   250.9     -0.106     -0.473     -0.361   20.009   20.379   41.451
0.2630        -209.5799     -230.69      -294.70        64.01   254.7     -0.155     -0.245     -0.320   20.010   20.379   41.452
0.2640        -209.6953     -230.80      -295.56        64.76   257.7     -0.193      0.041     -0.236   20.010   20.379   41.452
0.2650        -209.7412     -230.85      -294.97        64.12   255.2     -0.207      0.247     -0.172   20.010   20.379   41.452
0.2660        -209.7529     -230.86      -294.03        63.17   251.4     -0.169      0.286     -0.150   20.010   20.379   41.453
0.2670        -209.7193     -230.83      -294.51        63.68   253.4     -0.092      0.135     -0.153   20.010   20.379   41.453
0.2680        -209.7015     -230.81      -295.48        64.67   257.4     -0.032     -0.142     -0.167   20.010   20.379   41.453
0.2690        -209.6308     -230.74      -294.95        64.21   255.5     -0.047     -0.419     -0.202   20.010   20.379   41.454
0.2700        -209.4574     -230.57      -293.41        62.84   250.1     -0.138     -0.568     -0.255   20.010   20.379   41.454
0.2710        -209.4592     -230.57      -292.89        62.32   248.0     -0.242     -0.513     -0.280   20.010   20.379   41.455
0.2720        -209.4728     -230.58      -293.49        62.90   250.3     -0.308     -0.285     -0.241   20.011   20.379   41.455
0.2730        -209.4986     -230.61      -294.23        63.62   253.2     -0.337     -0.004     -0.160   20.011   20.379   41.455
0.2740        -209.5141     -230.63      -294.06        63.43   252.4     -0.336      0.189     -0.087   20.011   20.379   41.456
0.2750        -209.5093     -230.62      -293.20        62.58   249.0     -0.287      0.209     -0.058   20.011   20.379   41.456
0.2760        -209.4648     -230.58      -293.12        62.55   248.9     -0.186      0.053     -0.085   20.011   20.379   41.456
0.2770        -209.5642     -230.68      -294.19        63.52   252.8     -0.067     -0.201     -0.153   20.011   20.379   41.457
0.2780        -209.6373     -230.75      -294.53        63.78   253.8      0.005     -0.454     -0.242   20.011   20.379   41.457
0.2790        -209.6713     -230.78      -293.56        62.77   249.8     -0.001     -0.603     -0.328   20.011   20.379   41.458
0.2800        -209.6897     -230.80      -292.70        61.89   246.3     -0.056     -0.578     -0.377   20.012   20.379   41.458
0.2810        -209.6525     -230.77      -292.84        62.07   247.0     -0.111     -0.387     -0.350   20.012   20.379   41.458
0.2820        -209.7042     -230.82      -293.74        62.92   250.4     -0.153     -0.131     -0.254   20.012   20.379   41.459
0.2830        -209.6022     -230.72      -294.05        63.34   252.1     -0.181      0.062     -0.142   20.012   20.379   41.459
0.2840        -209.5133     -230.63      -293.61        62.99   250.7     -0.175      0.119     -0.097   20.012   20.379   41.459
0.2850        -209.4955     -230.61      -293.45        62.84   250.1     -0.106      0.038     -0.147   20.012   20.379   41.460
0.2860        -209.5607     -230.68      -294.25        63.57   253.0      0.006     -0.145     -0.253   20.012   20.379   41.460
0.2870        -209.6076     -230.72      -295.04        64.32   256.0      0.083     -0.369     -0.357   20.012   20.379   41.461
0.2880        -209.5865     -230.70      -294.64        63.94   254.4      0.063     -0.533     -0.429   20.012   20.379   41.461
0.2890        -209.5127     -230.63      -293.51        62.88   250.2     -0.044     -0.555     -0.460   20.012   20.379   41.461
0.2900        -209.5898     -230.71      -293.13        62.42   248.4     -0.166     -0.430     -0.420   20.013   20.379   41.462
0.2910        -209.5755     -230.69      -293.62        62.93   250.4     -0.242     -0.241     -0.296   20.013   20.379   41.462
0.2920        -209.5037     -230.62      -294.15        63.52   252.8     -0.256     -0.088     -0.151   20.013   20.379   41.462
0.2930        -209.3787     -230.50      -294.10        63.60   253.1     -0.212     -0.025     -0.083   20.013   20.379   41.463
0.2940        -209.4524     -230.57      -294.05        63.48   252.6     -0.117     -0.061     -0.139   20.013   20.380   41.463
0.2950        -209.4841     -230.60      -294.36        63.76   253.7     -0.003     -0.187     -0.273   20.013   20.380   41.464
0.2960        -209.4881     -230.61      -295.00        64.40   256.3      0.069     -0.347     -0.397   20.013   20.380   41.464
0.2970        -209.4185     -230.54      -295.04        64.50   256.7      0.041     -0.464     -0.461   20.013   20.380   41.464
0.2980        -209.4573     -230.58      -294.29        63.72   253.6     -0.074     -0.474     -0.461   20.013   20.380   41.465
0.2990        -209.5770     -230.70      -293.58        62.88   250.2     -0.206     -0.381     -0.399   20.013   20.380   41.465
0.3000        -209.7891     -230.91      -293.58        62.67   249.4     -0.278     -0.238     -0.282   20.013   20.380   41.466
0.3010        -209.7031     -230.82      -293.67        62.84   250.1     -0.271     -0.114     -0.166   20.014   20.380   41.466
0.3020        -209.4859     -230.61      -293.64        63.03   250.8     -0.195     -0.055     -0.118   20.014   20.380   41.467
0.3030        -209.4876     -230.61      -293.77        63.16   251.4     -0.077     -0.084     -0.178   20.014   20.380   41.467
0.3040        -209.5798     -230.70      -294.08        63.38   252.2      0.046     -0.202     -0.304   20.014   20.380   41.467
0.3050        -209.5485     -230.67      -294.66        63.99   254.7      0.122     -0.366     -0.413   20.014   20.380   41.468
0.3060        -209.5242     -230.65      -295.28        64.64   257.2      0.101     -0.498     -0.451   20.014   20.380   41.468
0.3070        -209.4752     -230.60      -295.15        64.55   256.9     -0.017     -0.532     -0.419   20.014   20.380   41.469
0.3080        -209.3488     -230.47      -294.30        63.82   254.0     -0.173     -0.460     -0.350   20.014   20.380   41.469
0.3090        -209.4440     -230.57      -293.65        63.09   251.1     -0.285     -0.312     -0.254   20.014   20.380   41.470
0.3100        -209.5966     -230.72      -293.43        62.71   249.6     -0.314     -0.161     -0.156   20.014   20.380   41.470
0.3110        -209.5545     -230.68      -293.66        62.98   250.6     -0.275     -0.074     -0.094   20.014   20.380   41.471
0.3120        -209.6836     -230.81      -294.38        63.58   253.0     -0.195     -0.082     -0.109   20.014   20.380   41.471
0.3130        -209.6747     -230.80      -294.64        63.84   254.1     -0.120     -0.191     -0.204   20.014   20.380   41.471
0.3140        -209.6222     -230.75      -294.70        63.95   254.5     -0.080     -0.341     -0.318   20.014   20.380   41.472
0.3150        -209.6293     -230.76      -295.20        64.44   256.5     -0.096     -0.450     -0.377   20.015   20.380   41.472
0.3160        -209.6964     -230.82      -295.80        64.98   258.6     -0.161     -0.466     -0.361   20.015   20.380   41.473
0.3170        -209.5179     -230.65      -295.58        64.93   258.4     -0.236     -0.394     -0.302   20.015   20.380   41.473
0.3180        -209.5690     -230.70      -294.89        64.19   255.5     -0.276     -0.261     -0.236   20.015   20.380   41.474
0.3190        -209.4619     -230.59      -293.81        63.22   251.6     -0.274     -0.131     -0.184   20.015   20.380   41.474
0.3200        -209.4661     -230.59      -293.71        63.12   251.2     -0.221     -0.048     -0.151   20.015   20.380   41.475
0.3210        -209.5904     -230.72      -294.61        63.89   254.3     -0.143     -0.061     -0.170   20.015   20.380   41.475
0.3220        -209.6249     -230.75      -294.91        64.15   255.3     -0.071     -0.182     -0.255   20.015   20.380   41.476
0.3230        -209.6741     -230.80      -294.61        63.81   253.9     -0.029     -0.357     -0.357   20.015   20.380   41.476
0.3240        -209.6765     -230.81      -294.94        64.13   255.2     -0.033     -0.497     -0.398   20.015   20.380   41.477
0.3250        -209.8005     -230.93      -296.06        65.13   259.2     -0.077     -0.521     -0.349   20.015   20.380   41.477
0.3260        -209.7809     -230.91      -296.40        65.49   260.6     -0.153     -0.428     -0.262   20.015   20.380   41.478
0.3270        -209.6825     -230.81      -295.53        64.72   257.5     -0.240     -0.255     -0.191   20.015   20.380   41.478
0.3280        -209.7247     -230.86      -294.43        63.57   253.0     -0.312     -0.062     -0.140   20.015   20.381   41.478
0.3290        -209.7242     -230.86      -293.99        63.14   251.3     -0.348      0.065     -0.110   20.015   20.381   41.479
0.3300        -209.6465     -230.78      -294.31        63.53   252.8     -0.345      0.063     -0.125   20.015   20.381   41.479
0.3310        -209.7031     -230.84      -294.50        63.66   253.3     -0.308     -0.063     -0.206   20.016   20.381   41.480
0.3320        -209.6342     -230.77      -294.07        63.30   251.9     -0.269     -0.254     -0.327   20.016   20.381   41.480
0.3330        -209.5352     -230.67      -294.30        63.63   253.2     -0.243     -0.416     -0.399   20.016   20.381   41.481
0.3340        -209.5763     -230.71      -295.47        64.76   257.7     -0.229     -0.488     -0.377   20.016   20.381   41.481
0.3350        -209.7837     -230.92      -296.20        65.28   259.8     -0.215     -0.448     -0.291   20.016   20.381   41.482
0.3360        -209.7026     -230.84      -295.60        64.77   257.7     -0.204     -0.335     -0.206   20.016   20.381   41.482
0.3370        -209.6271     -230.76      -294.79        64.03   254.8     -0.195     -0.188     -0.155   20.016   20.381   41.483
0.3380        -209.5479     -230.68      -294.35        63.67   253.4     -0.191     -0.064     -0.137   20.016   20.381   41.483
0.3390        -209.5200     -230.66      -294.57        63.92   254.4     -0.195     -0.023     -0.160   20.016   20.381   41.484
0.3400        -209.5258     -230.66      -294.86        64.20   255.5     -0.205     -0.095     -0.253   20.016   20.381   41.484
0.3410        -209.6648     -230.80      -294.68        63.88   254.2     -0.218     -0.236     -0.391   20.016   20.381   41.485
0.3420        -209.7370     -230.88      -294.67        63.79   253.9     -0.244     -0.361     -0.486   20.016   20.381   41.485
0.3430        -209.8262     -230.97      -295.66        64.70   257.5     -0.273     -0.405     -0.465   20.016   20.381   41.486
0.3440        -209.8305     -230.97      -296.66        65.69   261.4     -0.283     -0.359     -0.349   20.016   20.381   41.486
0.3450        -209.7671     -230.91      -296.73        65.83   262.0     -0.258     -0.255     -0.219   20.016   20.381   41.487
0.3460        -209.6859     -230.83      -296.25        65.43   260.4     -0.225     -0.127     -0.128   20.017   20.381   41.487
0.3470        -209.6346     -230.78      -295.79        65.01   258.7     -0.207     -0.018     -0.086   20.017   20.382   41.488
0.3480        -209.6029     -230.74      -295.78        65.03   258.8     -0.206      0.010     -0.097   20.017   20.382   41.488
0.3490        -209.5482     -230.69      -295.97        65.28   259.8     -0.224     -0.084     -0.169   20.017   20.382   41.489
0.3500        -209.5067     -230.65      -295.55        64.91   258.3     -0.271     -0.255     -0.285   20.017   20.382   41.489
0.3510        -209.5532     -230.70      -294.96        64.27   255.8     -0.344     -0.399     -0.379   20.017   20.382   41.490
0.3520        -209.6972     -230.84      -295.35        64.51   256.7     -0.407     -0.446     -0.384   20.017   20.382   41.490
0.3530        -209.8214     -230.97      -296.39        65.43   260.4     -0.416     -0.395     -0.303   20.017   20.382   41.491
0.3540        -209.7332     -230.88      -296.65        65.78   261.8     -0.360     -0.278     -0.204   20.017   20.382   41.491
0.3550        -209.6586     -230.80      -296.10        65.29   259.8     -0.270     -0.137     -0.158   20.017   20.382   41.492
0.3560        -209.7404     -230.89      -295.64        64.75   257.7     -0.188     -0.011     -0.169   20.017   20.382   41.493
0.3570        -209.7766     -230.92      -295.75        64.82   258.0     -0.145      0.037     -0.218   20.017   20.382   41.493
0.3580        -209.6526     -230.80      -295.96        65.16   259.3     -0.156     -0.032     -0.293   20.017   20.382   41.494
0.3590        -209.6411     -230.79      -295.62        64.84   258.0     -0.222     -0.186     -0.385   20.018   20.382   41.494
0.3600        -209.5993     -230.75      -294.79        64.04   254.9     -0.330     -0.328     -0.449   20.018   20.382   41.495
0.3610        -209.5435     -230.69      -294.57        63.88   254.2     -0.431     -0.378     -0.427   20.018   20.382   41.495
0.3620        -209.5971     -230.75      -295.32        64.58   257.0     -0.454     -0.322     -0.325   20.018   20.382   41.496
0.3630        -209.6084     -230.76      -295.88        65.13   259.2     -0.387     -0.203     -0.220   20.018   20.382   41.496
0.3640        -209.6304     -230.78      -295.43        64.65   257.3     -0.271     -0.070     -0.171   20.018   20.382   41.497
0.3650        -209.6572     -230.81      -294.56        63.75   253.7     -0.169      0.023     -0.183   20.018   20.383   41.497
0.3660        -209.7544     -230.91      -294.55        63.65   253.3     -0.116      0.038     -0.217   20.018   20.383   41.498
0.3670        -209.7182     -230.87      -294.95        64.08   255.0     -0.132     -0.051     -0.255   20.018   20.383   41.498
0.3680        -209.6071     -230.76      -294.67        63.91   254.3     -0.225     -0.213     -0.297   20.018   20.383   41.499
0.3690        -209.5902     -230.74      -293.67        62.93   250.4     -0.365     -0.364     -0.329   20.018   20.383   41.500
0.3700        -209.5691     -230.72      -292.83        62.11   247.2     -0.483     -0.424     -0.326   20.019   20.383   41.500
0.3710        -209.5887     -230.74      -292.99        62.24   247.7     -0.511     -0.366     -0.286   20.019   20.383   41.501
0.3720        -209.6900     -230.84      -293.82        62.98   250.6     -0.441     -0.221     -0.229   20.019   20.383   41.501
0.3730        -209.6390     -230.79      -293.90        63.10   251.1     -0.338     -0.079     -0.205   20.019   20.383   41.502
0.3740        -209.6837     -230.84      -293.25        62.41   248.4     -0.243     -0.000     -0.218   20.019   20.383   41.502
0.3750        -209.7760     -230.93      -293.21        62.28   247.9     -0.181     -0.001     -0.248   20.019   20.383   41.503
0.3760        -209.8247     -230.98      -294.08        63.10   251.1     -0.180     -0.075     -0.277   20.019   20.383   41.504
0.3770        -209.6549     -230.81      -294.54        63.73   253.6     -0.258     -0.200     -0.302   20.019   20.383   41.504
0.3780        -209.5281     -230.69      -294.29        63.60   253.1     -0.382     -0.337     -0.321   20.019   20.383   41.505
0.3790        -209.7264     -230.89      -294.04        63.16   251.3     -0.481     -0.420     -0.312   20.020   20.383   41.505
0.3800        -209.7531     -230.91      -294.06        63.15   251.3     -0.510     -0.408     -0.261   20.020   20.383   41.506
0.3810        -209.6992     -230.86      -294.86        64.00   254.7     -0.464     -0.297     -0.176   20.020   20.383   41.506
0.3820        -209.5478     -230.71      -295.62        64.91   258.3     -0.384     -0.153     -0.097   20.020   20.383   41.507
0.3830        -209.6297     -230.79      -295.52        64.73   257.6     -0.297     -0.045     -0.071   20.020   20.383   41.508
0.3840        -209.8400     -231.00      -295.21        64.21   255.5     -0.223     -0.006     -0.106   20.020   20.383   41.508
0.3850        -209.9506     -231.11      -295.59        64.48   256.6     -0.190     -0.038     -0.173   20.020   20.384   41.509
0.3860        -210.0354     -231.20      -296.27        65.07   259.0     -0.214     -0.127     -0.238   20.020   20.384   41.509
0.3870        -209.7662     -230.93      -296.23        65.30   259.9     -0.297     -0.248     -0.281   20.021   20.384   41.510
0.3880        -209.7914     -230.96      -295.90        64.94   258.5     -0.400     -0.347     -0.283   20.021   20.384   41.510
0.3890        -209.8266     -230.99      -295.14        64.15   255.3     -0.480     -0.378     -0.232   20.021   20.384   41.511
0.3900        -209.6994     -230.86      -294.70        63.84   254.1     -0.501     -0.321     -0.122   20.021   20.384   41.512
0.3910        -209.4882     -230.65      -295.17        64.52   256.8     -0.456     -0.210      0.005   20.021   20.384   41.512
0.3920        -209.4989     -230.67      -295.67        65.01   258.7     -0.359     -0.114      0.064   20.021   20.384   41.513
0.3930        -209.5585     -230.73      -295.20        64.48   256.6     -0.248     -0.077      0.019   20.021   20.384   41.513
0.3940        -209.4637     -230.63      -294.48        63.85   254.1     -0.178     -0.097     -0.091   20.022   20.384   41.514
0.3950        -209.5778     -230.74      -294.82        64.07   255.0     -0.175     -0.157     -0.195   20.022   20.384   41.514
0.3960        -209.5328     -230.70      -295.50        64.80   257.9     -0.225     -0.247     -0.247   20.022   20.384   41.515
0.3970        -209.5620     -230.73      -295.76        65.03   258.8     -0.296     -0.355     -0.255   20.022   20.384   41.516
0.3980        -209.6838     -230.85      -295.13        64.27   255.8     -0.356     -0.434     -0.221   20.022   20.384   41.516
0.3990        -209.7909     -230.96      -294.46        63.50   252.7     -0.381     -0.422     -0.138   20.022   20.384   41.517
0.4000        -209.4437     -230.61      -294.44        63.82   254.0     -0.369     -0.320     -0.046   20.022   20.384   41.517
0.4010        -209.5403     -230.71      -295.47        64.76   257.7     -0.306     -0.155      0.001   20.023   20.384   41.518
0.4020        -209.6052     -230.78      -295.71        64.94   258.4     -0.242     -0.010     -0.062   20.023   20.384   41.518
0.4030        -209.4948     -230.67      -294.75        64.08   255.0     -0.217      0.070     -0.187   20.023   20.384   41.519
0.4040        -209.4550     -230.63      -294.26        63.64   253.2     -0.235      0.066     -0.291   20.023   20.385   41.519
0.4050        -209.6319     -230.80      -295.07        64.26   255.7     -0.267     -0.019     -0.335   20.023   20.385   41.520
0.4060        -209.7127     -230.89      -295.70        64.81   257.9     -0.295     -0.144     -0.315   20.023   20.385   41.520
0.4070        -209.6788     -230.85      -295.09        64.24   255.7     -0.340     -0.265     -0.262   20.024   20.385   41.521
0.4080        -209.6039     -230.78      -293.95        63.17   251.4     -0.388     -0.316     -0.169   20.024   20.385   41.522
0.4090        -209.5745     -230.75      -293.61        62.86   250.2     -0.400     -0.267     -0.053   20.024   20.385   41.522
0.4100        -209.5332     -230.71      -294.24        63.53   252.8     -0.359     -0.143      0.024   20.024   20.385   41.523
0.4110        -209.5782     -230.75      -294.81        64.06   254.9     -0.299     -0.006      0.004   20.024   20.385   41.523
0.4120        -209.4975     -230.67      -294.15        63.47   252.6     -0.268      0.076     -0.098   20.024   20.385   41.524
0.4130        -209.2909     -230.47      -293.35        62.88   250.2     -0.261      0.069     -0.205   20.025   20.385   41.524
0.4140        -209.3942     -230.57      -293.92        63.34   252.1     -0.245     -0.028     -0.259   20.025   20.385   41.525
0.4150        -209.5767     -230.75      -294.71        63.96   254.5     -0.220     -0.175     -0.248   20.025   20.385   41.525
0.4160        -209.6314     -230.81      -294.57        63.76   253.7     -0.227     -0.320     -0.196   20.025   20.385   41.526
0.4170        -209.5875     -230.77      -293.82        63.05   250.9     -0.268     -0.397     -0.125   20.025   20.385   41.526
0.4180        -209.7268     -230.91      -293.54        62.63   249.3     -0.288     -0.362     -0.054   20.026   20.385   41.527
0.4190        -209.4872     -230.67      -293.61        62.94   250.5     -0.269     -0.255     -0.030   20.026   20.385   41.527
0.4200        -209.4879     -230.67      -294.15        63.49   252.7     -0.209     -0.115     -0.066   20.026   20.385   41.528
0.4210        -209.4894     -230.67      -294.12        63.45   252.5     -0.155     -0.020     -0.154   20.026   20.385   41.528
0.4220        -209.4597     -230.64      -293.94        63.30   251.9     -0.119     -0.018     -0.235   20.026   20.385   41.529
0.4230        -209.3876     -230.57      -294.23        63.66   253.3     -0.094     -0.111     -0.255   20.026   20.385   41.529
0.4240        -209.5059     -230.69      -294.61        63.93   254.4     -0.098     -0.248     -0.209   20.027   20.385   41.530
0.4250        -209.6312     -230.81      -294.65        63.84   254.0     -0.164     -0.348     -0.122   20.027   20.385   41.531
0.4260        -209.7114     -230.89      -294.49        63.60   253.1     -0.277     -0.359     -0.047   20.027   20.385   41.531
0.4270        -209.7338     -230.92      -294.09        63.17   251.4     -0.363     -0.281     -0.015   20.027   20.385   41.532
0.4280        -209.7078     -230.89      -293.87        62.98   250.6     -0.362     -0.155     -0.033   20.027   20.385   41.532
0.4290        -209.7078     -230.89      -294.11        63.22   251.6     -0.282     -0.026     -0.090   20.028   20.386   41.533
0.4300        -209.7416     -230.93      -294.22        63.30   251.9     -0.178      0.059     -0.172   20.028   20.386   41.533
0.4310        -209.8040     -230.99      -294.20        63.21   251.6     -0.089      0.061     -0.230   20.028   20.386   41.534
0.4320        -209.6919     -230.88      -294.44        63.56   252.9     -0.034     -0.036     -0.224   20.028   20.386   41.534
0.4330        -209.7274     -230.91      -294.77        63.86   254.1     -0.025     -0.189     -0.159   20.028   20.386   41.535
0.4340        -209.8081     -230.99      -294.57        63.58   253.0     -0.081     -0.314     -0.075   20.028   20.386   41.535
0.4350        -209.8279     -231.01      -294.32        63.30   251.9     -0.183     -0.334     -0.022   20.029   20.386   41.536
0.4360        -209.8258     -231.01      -294.21        63.20   251.5     -0.268     -0.256     -0.027   20.029   20.386   41.536
0.4370        -209.7923     -230.98      -293.99        63.02   250.8     -0.283     -0.133     -0.073   20.029   20.386   41.536
0.4380        -209.7679     -230.95      -293.77        62.82   250.0     -0.242     -0.009     -0.137   20.029   20.386   41.537
0.4390        -209.7510     -230.94      -293.60        62.66   249.4     -0.190      0.078     -0.209   20.029   20.386   41.537
0.4400        -209.6671     -230.85      -293.40        62.55   248.9     -0.136      0.084     -0.250   20.030   20.386   41.538
0.4410        -209.7157     -230.90      -293.76        62.86   250.2     -0.079     -0.014     -0.236   20.030   20.386   41.538
0.4420        -209.7395     -230.93      -294.26        63.33   252.0     -0.040     -0.172     -0.171   20.030   20.386   41.539
0.4430        -209.7280     -230.92      -294.16        63.24   251.7     -0.059     -0.301     -0.102   20.030   20.386   41.539
0.4440        -209.7394     -230.93      -293.71        62.78   249.8     -0.138     -0.337     -0.071   20.030   20.386   41.540
0.4450        -209.7290     -230.92      -293.43        62.51   248.8     -0.223     -0.288     -0.083   20.030   20.386   41.540
0.4460        -209.7072     -230.90      -293.41        62.51   248.8     -0.253     -0.197     -0.117   20.031   20.386   41.541
0.4470        -209.6398     -230.83      -293.39        62.56   249.0     -0.225     -0.097     -0.156   20.031   20.386   41.541
0.4480        -209.5347     -230.72      -293.15        62.43   248.4     -0.169     -0.023     -0.202   20.031   20.386   41.542
0.4490        -209.4065     -230.60      -292.71        62.12   247.2     -0.107     -0.010     -0.248   20.031   20.386   41.542
0.4500        -209.4114     -230.60      -292.80        62.20   247.5     -0.041     -0.067     -0.250   20.031   20.386   41.543
0.4510        -209.5527     -230.74      -293.78        63.04   250.9      0.009     -0.173     -0.184   20.031   20.386   41.543
0.4520        -209.6383     -230.83      -294.58        63.76   253.7      0.004     -0.277     -0.079   20.032   20.386   41.544
0.4530        -209.7153     -230.91      -294.29        63.38   252.2     -0.068     -0.330     -0.002   20.032   20.386   41.544
0.4540        -209.6676     -230.86      -293.54        62.68   249.5     -0.154     -0.316      0.023   20.032   20.386   41.544
0.4550        -209.5769     -230.77      -293.71        62.94   250.5     -0.195     -0.247      0.009   20.032   20.386   41.545
0.4560        -209.5729     -230.76      -294.47        63.71   253.5     -0.184     -0.146     -0.025   20.032   20.386   41.545
0.4570        -209.6074     -230.80      -294.53        63.73   253.6     -0.159     -0.057     -0.083   20.032   20.386   41.546
0.4580        -209.5238     -230.72      -293.91        63.19   251.5     -0.134     -0.030     -0.153   20.033   20.386   41.546
0.4590        -209.4506     -230.64      -293.76        63.12   251.2     -0.082     -0.087     -0.184   20.033   20.386   41.547
0.4600        -209.4916     -230.68      -294.58        63.89   254.3     -0.001     -0.194     -0.150   20.033   20.386   41.547
0.4610        -209.5386     -230.73      -295.67        64.94   258.4      0.049     -0.289     -0.084   20.033   20.386   41.548
0.4620        -209.5533     -230.75      -295.57        64.82   258.0      0.013     -0.319     -0.034   20.033   20.386   41.548
0.4630        -209.5155     -230.71      -294.21        63.50   252.7     -0.087     -0.276     -0.023   20.033   20.386   41.548
0.4640        -209.5542     -230.75      -293.72        62.97   250.6     -0.173     -0.179     -0.042   20.033   20.386   41.549
0.4650        -209.6447     -230.84      -294.54        63.71   253.5     -0.207     -0.070     -0.081   20.034   20.386   41.549
0.4660        -209.7242     -230.92      -294.76        63.84   254.0     -0.201     -0.002     -0.134   20.034   20.386   41.550
0.4670        -209.7253     -230.92      -293.69        62.77   249.8     -0.178     -0.017     -0.188   20.034   20.386   41.550
0.4680        -209.6330     -230.83      -292.71        61.88   246.3     -0.132     -0.105     -0.206   20.034   20.386   41.550
0.4690        -209.6069     -230.80      -293.01        62.21   247.6     -0.064     -0.214     -0.158   20.034   20.386   41.551
0.4700        -209.6198     -230.81      -294.11        63.30   251.9     -0.020     -0.297     -0.061   20.034   20.386   41.551
0.4710        -209.5323     -230.73      -294.40        63.67   253.4     -0.053     -0.336      0.032   20.034   20.386   41.552
0.4720        -209.5593     -230.75      -293.41        62.66   249.4     -0.138     -0.321      0.086   20.035   20.386   41.552
0.4730        -209.6027     -230.80      -292.74        61.94   246.5     -0.197     -0.269      0.086   20.035   20.386   41.552
0.4740        -209.6499     -230.84      -293.63        62.78   249.9     -0.181     -0.215      0.051   20.035   20.386   41.553
0.4750        -209.6355     -230.83      -294.35        63.52   252.8     -0.119     -0.197     -0.000   20.035   20.386   41.553
0.4760        -209.5590     -230.75      -293.53        62.77   249.8     -0.058     -0.235     -0.059   20.035   20.386   41.554
0.4770        -209.5197     -230.71      -292.52        61.80   245.9     -0.010     -0.307     -0.098   20.035   20.386   41.554
0.4780        -209.5392     -230.73      -292.72        61.98   246.7      0.028     -0.355     -0.092   20.035   20.386   41.554
0.4790        -209.5772     -230.77      -293.78        63.00   250.7      0.043     -0.340     -0.064   20.035   20.386   41.555
0.4800        -209.6959     -230.89      -294.44        63.55   252.9      0.006     -0.269     -0.060   20.036   20.386   41.555
0.4810        -209.6223     -230.82      -293.74        62.93   250.4     -0.074     -0.179     -0.097   20.036   20.386   41.555
0.4820        -209.5083     -230.70      -292.90        62.20   247.5     -0.133     -0.110     -0.144   20.036   20.386   41.556
0.4830        -209.5132     -230.71      -293.24        62.53   248.9     -0.126     -0.087     -0.174   20.036   20.386   41.556
0.4840        -209.5270     -230.72      -293.91        63.19   251.5     -0.076     -0.116     -0.179   20.036   20.386   41.556
0.4850        -209.7416     -230.94      -293.71        62.77   249.8     -0.023     -0.184     -0.165   20.036   20.386   41.557
0.4860        -209.8990     -231.10      -292.76        61.67   245.4      0.008     -0.261     -0.136   20.036   20.386   41.557
0.4870        -209.8094     -231.01      -292.51        61.51   244.8      0.007     -0.305     -0.086   20.036   20.386   41.557
0.4880        -209.7347     -230.93      -293.28        62.35   248.1     -0.028     -0.289     -0.029   20.036   20.387   41.558
0.4890        -209.9594     -231.16      -293.91        62.75   249.7     -0.096     -0.223      0.008   20.037   20.387   41.558
0.4900        -210.0078     -231.20      -293.53        62.33   248.0     -0.185     -0.158     -0.003   20.037   20.387   41.558
0.4910        -209.8783     -231.08      -293.12        62.05   246.9     -0.239     -0.113     -0.048   20.037   20.387   41.559
0.4920        -209.7693     -230.97      -293.42        62.45   248.5     -0.226     -0.093     -0.099   20.037   20.387   41.559
0.4930        -209.7340     -230.93      -294.02        63.09   251.1     -0.163     -0.101     -0.133   20.037   20.387   41.559
0.4940        -209.8299     -231.03      -294.12        63.09   251.1     -0.094     -0.140     -0.141   20.037   20.387   41.560
0.4950        -209.7768     -230.97      -293.31        62.34   248.1     -0.055     -0.197     -0.113   20.037   20.387   41.560
0.4960        -209.6958     -230.89      -292.99        62.10   247.1     -0.063     -0.241     -0.041   20.037   20.387   41.560
0.4970        -209.6205     -230.82      -293.52        62.70   249.5     -0.116     -0.245      0.039   20.037   20.387   41.560
0.4980        -209.8596     -231.06      -293.94        62.88   250.2     -0.187     -0.201      0.079   20.037   20.387   41.561
0.4990        -209.9981     -231.20      -293.64        62.44   248.5     -0.253     -0.136      0.053   20.038   20.387   41.561
0.5000        -209.9908     -231.19      -293.57        62.39   248.3     -0.279     -0.073     -0.027   20.038   20.387   41.561
0.5010        -209.9307     -231.13      -293.76        62.63   249.3     -0.251     -0.028     -0.136   20.038   20.387   41.562
0.5020        -209.7172     -230.92      -293.68        62.76   249.8     -0.185     -0.001     -0.243   20.038   20.387   41.562
0.5030        -209.7411     -230.94      -293.79        62.85   250.1     -0.108      0.008     -0.321   20.038   20.387   41.562
0.5040        -209.7828     -230.98      -293.58        62.60   249.1     -0.050     -0.002     -0.340   20.038   20.387   41.562
0.5050        -209.7222     -230.92      -293.32        62.39   248.3     -0.029     -0.024     -0.300   20.038   20.387   41.563
0.5060        -209.6072     -230.81      -293.63        62.83   250.0     -0.047     -0.054     -0.230   20.038   20.387   41.563
0.5070        -209.5847     -230.78      -293.99        63.20   251.5     -0.097     -0.085     -0.158   20.038   20.387   41.563
0.5080        -209.7397     -230.94      -294.10        63.16   251.3     -0.163     -0.112     -0.104   20.038   20.387   41.563
0.5090        -209.7887     -230.99      -294.14        63.15   251.3     -0.223     -0.127     -0.095   20.038   20.387   41.564
0.5100        -209.7063     -230.91      -294.08        63.17   251.4     -0.250     -0.118     -0.142   20.039   20.387   41.564
0.5110        -209.5990     -230.80      -293.99        63.20   251.5     -0.233     -0.084     -0.220   20.039   20.387   41.564
0.5120        -209.7300     -230.93      -294.34        63.41   252.3     -0.183     -0.034     -0.273   20.039   20.387   41.565
0.5130        -209.8152     -231.02      -294.43        63.42   252.4     -0.134     -0.001     -0.265   20.039   20.387   41.565
0.5140        -209.7672     -230.97      -294.29        63.32   252.0     -0.113     -0.007     -0.197   20.039   20.387   41.565
0.5150        -209.6726     -230.87      -294.47        63.60   253.1     -0.120     -0.050     -0.108   20.039   20.387   41.565
0.5160        -209.6557     -230.86      -294.65        63.79   253.9     -0.147     -0.114     -0.050   20.039   20.387   41.566
0.5170        -209.6806     -230.88      -294.54        63.66   253.3     -0.192     -0.166     -0.041   20.039   20.387   41.566
0.5180        -209.6579     -230.86      -294.45        63.59   253.0     -0.234     -0.175     -0.074   20.039   20.387   41.566
0.5190        -209.6949     -230.90      -294.59        63.69   253.5     -0.245     -0.138     -0.140   20.039   20.386   41.566
0.5200        -209.6931     -230.89      -294.76        63.87   254.2     -0.223     -0.084     -0.223   20.039   20.386   41.567
0.5210        -209.5938     -230.80      -294.68        63.88   254.2     -0.193     -0.038     -0.288   20.039   20.386   41.567
0.5220        -209.6735     -230.88      -294.34        63.47   252.6     -0.176     -0.010     -0.291   20.040   20.386   41.567
0.5230        -209.6857     -230.89      -293.88        62.99   250.7     -0.179     -0.005     -0.247   20.040   20.386   41.567
0.5240        -209.6774     -230.88      -293.93        63.05   250.9     -0.175     -0.014     -0.205   20.040   20.386   41.568
0.5250        -209.5768     -230.78      -294.08        63.30   251.9     -0.158     -0.029     -0.194   20.040   20.386   41.568
0.5260        -209.7846     -230.99      -294.20        63.22   251.6     -0.146     -0.055     -0.208   20.040   20.386   41.568
0.5270        -209.6559     -230.86      -293.91        63.05   250.9     -0.160     -0.105     -0.223   20.040   20.386   41.568
0.5280        -209.5849     -230.79      -293.98        63.19   251.5     -0.173     -0.159     -0.223   20.040   20.386   41.569
0.5290        -209.6806     -230.88      -294.52        63.64   253.3     -0.166     -0.204     -0.229   20.040   20.386   41.569
0.5300        -209.6363     -230.84      -294.80        63.96   254.5     -0.153     -0.235     -0.243   20.040   20.386   41.569
0.5310        -209.6605     -230.86      -294.55        63.69   253.4     -0.160     -0.246     -0.235   20.040   20.386   41.569
0.5320        -209.6049     -230.81      -294.16        63.35   252.1     -0.193     -0.221     -0.183   20.040   20.386   41.570
0.5330        -209.6467     -230.85      -294.68        63.83   254.0     -0.215     -0.149     -0.123   20.040   20.386   41.570
0.5340        -209.6589     -230.86      -295.35        64.49   256.6     -0.219     -0.059     -0.099   20.041   20.386   41.570
0.5350        -209.5901     -230.79      -295.16        64.37   256.1     -0.237     -0.000     -0.108   20.041   20.386   41.571
0.5360        -209.6509     -230.86      -294.82        63.96   254.5     -0.282      0.000     -0.107   20.041   20.386   41.571
0.5370        -209.6690     -230.87      -295.02        64.14   255.3     -0.323     -0.036     -0.074   20.041   20.386   41.571
0.5380        -209.6856     -230.89      -295.81        64.92   258.3     -0.341     -0.078     -0.051   20.041   20.386   41.571
0.5390        -209.6556     -230.86      -296.18        65.32   259.9     -0.350     -0.118     -0.070   20.041   20.386   41.572
0.5400        -209.7323     -230.94      -295.54        64.60   257.1     -0.374     -0.152     -0.105   20.041   20.386   41.572
0.5410        -209.6820     -230.89      -294.68        63.79   253.9     -0.405     -0.152     -0.115   20.041   20.385   41.572
0.5420        -209.6517     -230.86      -295.04        64.18   255.4     -0.399     -0.093     -0.104   20.041   20.385   41.572
0.5430        -209.6369     -230.84      -295.73        64.88   258.2     -0.354     -0.003     -0.106   20.041   20.385   41.573
0.5440        -209.6357     -230.84      -295.20        64.36   256.1     -0.304      0.045     -0.122   20.041   20.385   41.573
0.5450        -209.6154     -230.82      -294.04        63.22   251.6     -0.271      0.008     -0.121   20.042   20.385   41.573
0.5460        -209.5648     -230.77      -293.74        62.96   250.6     -0.243     -0.075     -0.085   20.042   20.385   41.573
0.5470        -209.5517     -230.76      -294.46        63.70   253.5     -0.229     -0.147     -0.061   20.042   20.385   41.573
0.5480        -209.5817     -230.79      -294.91        64.12   255.2     -0.261     -0.194     -0.098   20.042   20.385   41.574
0.5490        -209.5498     -230.76      -293.97        63.22   251.6     -0.338     -0.225     -0.179   20.042   20.385   41.574
0.5500        -209.6952     -230.90      -293.05        62.14   247.3     -0.416     -0.217     -0.239   20.042   20.385   41.574
0.5510        -209.5878     -230.80      -293.22        62.43   248.4     -0.445     -0.159     -0.233   20.042   20.385   41.574
0.5520        -209.5282     -230.74      -294.06        63.32   252.0     -0.409     -0.076     -0.174   20.042   20.385   41.575
0.5530        -209.5600     -230.77      -293.98        63.21   251.6     -0.344     -0.027     -0.107   20.042   20.385   41.575
0.5540        -209.6170     -230.83      -293.23        62.40   248.3     -0.292     -0.039     -0.054   20.042   20.385   41.575
0.5550        -209.6462     -230.86      -293.04        62.19   247.5     -0.270     -0.078     -0.010   20.043   20.384   41.575
0.5560        -209.5658     -230.77      -293.76        62.98   250.6     -0.290     -0.118     -0.000   20.043   20.384   41.575
0.5570        -209.5491     -230.76      -294.61        63.85   254.1     -0.343     -0.149     -0.054   20.043   20.384   41.576
0.5580        -209.5614     -230.77      -294.55        63.78   253.8     -0.411     -0.175     -0.165   20.043   20.384   41.576
0.5590        -209.4936     -230.70      -294.02        63.32   252.0     -0.455     -0.179     -0.269   20.043   20.384   41.576
0.5600        -209.4612     -230.67      -294.28        63.61   253.1     -0.439     -0.142     -0.306   20.043   20.384   41.576
0.5610        -209.6899     -230.90      -295.36        64.46   256.5     -0.356     -0.078     -0.288   20.043   20.384   41.576
0.5620        -209.5538     -230.76      -295.45        64.69   257.4     -0.243     -0.031     -0.249   20.043   20.384   41.577
0.5630        -209.6310     -230.84      -295.03        64.19   255.5     -0.150     -0.033     -0.211   20.044   20.384   41.577
0.5640        -209.6452     -230.86      -294.58        63.72   253.6     -0.114     -0.084     -0.162   20.044   20.384   41.577
0.5650        -209.6720     -230.88      -294.79        63.90   254.3     -0.136     -0.154     -0.120   20.044   20.384   41.577
0.5660        -209.6432     -230.85      -295.33        64.48   256.6     -0.207     -0.220     -0.132   20.044   20.384   41.577
0.5670        -209.6519     -230.86      -295.24        64.38   256.2     -0.305     -0.263     -0.214   20.044   20.383   41.578
0.5680        -209.6313     -230.84      -294.47        63.63   253.2     -0.400     -0.267     -0.325   20.044   20.383   41.578
0.5690        -209.6210     -230.83      -293.88        63.05   250.9     -0.445     -0.229     -0.397   20.044   20.383   41.578
0.5700        -209.6100     -230.82      -293.79        62.97   250.6     -0.405     -0.174     -0.404   20.045   20.383   41.578
0.5710        -209.5517     -230.76      -293.88        63.12   251.2     -0.299     -0.132     -0.360   20.045   20.383   41.578
0.5720        -209.5397     -230.75      -293.83        63.08   251.0     -0.200     -0.123     -0.289   20.045   20.383   41.579
0.5730        -209.7268     -230.94      -293.62        62.68   249.5     -0.168     -0.142     -0.210   20.045   20.383   41.579
0.5740        -209.8064     -231.02      -293.42        62.40   248.3     -0.201     -0.177     -0.157   20.045   20.383   41.579
0.5750        -209.7941     -231.01      -293.77        62.77   249.8     -0.268     -0.211     -0.166   20.045   20.383   41.579
0.5760        -209.6803     -230.89      -294.06        63.16   251.4     -0.350     -0.223     -0.238   20.045   20.383   41.579
0.5770        -209.6017     -230.82      -293.82        63.01   250.7     -0.436     -0.205     -0.334   20.046   20.382   41.580
0.5780        -209.7022     -230.92      -293.52        62.60   249.1     -0.488     -0.168     -0.404   20.046   20.382   41.580
0.5790        -209.6344     -230.85      -293.13        62.28   247.8     -0.466     -0.135     -0.424   20.046   20.382   41.580
0.5800        -209.6532     -230.87      -293.41        62.55   248.9     -0.374     -0.109     -0.391   20.046   20.382   41.580
0.5810        -209.8154     -231.03      -294.30        63.27   251.8     -0.275     -0.097     -0.311   20.046   20.382   41.581
0.5820        -210.0134     -231.23      -294.68        63.45   252.5     -0.225     -0.109     -0.212   20.046   20.382   41.581
0.5830        -210.0942     -231.31      -294.43        63.12   251.2     -0.220     -0.147     -0.140   20.047   20.382   41.581
0.5840        -210.0794     -231.30      -294.62        63.32   252.0     -0.229     -0.195     -0.129   20.047   20.382   41.581
0.5850        -209.9418     -231.16      -295.15        63.99   254.6     -0.246     -0.229     -0.188   20.047   20.382   41.582
0.5860        -209.8473     -231.06      -295.36        64.29   255.8     -0.289     -0.240     -0.291   20.047   20.382   41.582
0.5870        -209.7191     -230.94      -294.88        63.95   254.5     -0.348     -0.243     -0.391   20.047   20.381   41.582
0.5880        -209.6284     -230.85      -294.00        63.15   251.3     -0.363     -0.244     -0.446   20.047   20.381   41.582
0.5890        -209.5020     -230.72      -293.51        62.79   249.9     -0.311     -0.246     -0.438   20.047   20.381   41.583
0.5900        -209.4430     -230.66      -293.96        63.29   251.9     -0.223     -0.239     -0.352   20.048   20.381   41.583
0.5910        -209.4840     -230.70      -294.36        63.66   253.3     -0.155     -0.225     -0.221   20.048   20.381   41.583
0.5920        -209.5365     -230.76      -294.08        63.33   252.0     -0.138     -0.211     -0.117   20.048   20.381   41.583
0.5930        -209.5639     -230.78      -293.88        63.09   251.1     -0.155     -0.197     -0.092   20.048   20.381   41.584
0.5940        -209.4739     -230.69      -294.33        63.64   253.2     -0.186     -0.184     -0.143   20.048   20.381   41.584
0.5950        -209.5632     -230.78      -295.27        64.48   256.6     -0.239     -0.185     -0.233   20.049   20.381   41.584
0.5960        -209.6369     -230.86      -295.50        64.64   257.3     -0.319     -0.212     -0.321   20.049   20.381   41.584
0.5970        -209.6449     -230.87      -294.70        63.83   254.0     -0.382     -0.249     -0.380   20.049   20.380   41.585
0.5980        -209.6850     -230.91      -294.10        63.20   251.5     -0.385     -0.275     -0.388   20.049   20.380   41.585
0.5990        -209.8168     -231.04      -294.61        63.57   253.0     -0.322     -0.264     -0.322   20.049   20.380   41.585
0.6000        -209.8550     -231.08      -295.04        63.96   254.5     -0.242     -0.219     -0.213   20.049   20.380   41.586
0.6010        -209.8314     -231.05      -294.67        63.62   253.2     -0.192     -0.163     -0.123   20.050   20.380   41.586
0.6020        -209.7922     -231.01      -294.12        63.11   251.1     -0.169     -0.118     -0.097   20.050   20.380   41.586
0.6030        -209.7550     -230.98      -294.20        63.22   251.6     -0.149     -0.111     -0.142   20.050   20.380   41.586
0.6040        -209.8698     -231.09      -295.09        64.00   254.7     -0.140     -0.153     -0.236   20.050   20.380   41.587
0.6050        -209.9110     -231.13      -295.62        64.49   256.6     -0.178     -0.232     -0.345   20.050   20.380   41.587
0.6060        -209.8580     -231.08      -294.85        63.77   253.8     -0.246     -0.318     -0.436   20.050   20.380   41.587
0.6070        -209.8353     -231.06      -293.79        62.74   249.7     -0.281     -0.371     -0.460   20.051   20.379   41.587
0.6080        -209.8612     -231.09      -293.84        62.75   249.7     -0.248     -0.374     -0.398   20.051   20.379   41.588
0.6090        -209.8630     -231.09      -294.25        63.16   251.4     -0.169     -0.325     -0.265   20.051   20.379   41.588
0.6100        -209.8073     -231.03      -294.02        62.99   250.7     -0.111     -0.256     -0.132   20.051   20.379   41.588
