Time[ps]     GFree[eV]    Etot[eV]     Epot[eV]     Ekin[eV]    T[K]      -----stress [GPa] --------     ----- BOX [A] ------ 
0.0010        -167.7395     -230.75      -293.73        62.98   250.6     -0.340     -0.488     -0.270   19.982   20.349   41.379
0.0020        -167.6239     -230.63      -293.47        62.84   250.1     -0.173     -0.450     -0.249   19.982   20.349   41.379
0.0030        -167.6806     -230.69      -294.69        64.00   254.7     -0.014     -0.333     -0.233   19.982   20.349   41.379
0.0040        -167.6755     -230.68      -295.57        64.88   258.2      0.032     -0.203     -0.238   19.982   20.349   41.379
0.0050        -167.6561     -230.66      -294.84        64.18   255.4     -0.062     -0.115     -0.276   19.982   20.349   41.379
0.0060        -167.6743     -230.68      -293.98        63.30   251.9     -0.232     -0.096     -0.327   19.982   20.349   41.379
0.0070        -167.6740     -230.68      -294.38        63.70   253.5     -0.388     -0.162     -0.354   19.982   20.349   41.379
0.0080        -167.6695     -230.68      -295.11        64.43   256.4     -0.479     -0.291     -0.351   19.982   20.349   41.378
0.0090        -167.6990     -230.71      -294.65        63.94   254.5     -0.505     -0.436     -0.350   19.981   20.349   41.378
0.0100        -167.7256     -230.73      -293.26        62.53   248.8     -0.456     -0.540     -0.349   19.981   20.349   41.378
0.0110        -167.7359     -230.74      -292.88        62.14   247.3     -0.324     -0.563     -0.316   19.981   20.349   41.378
0.0120        -167.7780     -230.78      -294.17        63.39   252.3     -0.163     -0.508     -0.233   19.981   20.349   41.378
0.0130        -167.8054     -230.81      -295.27        64.46   256.5     -0.085     -0.408     -0.140   19.981   20.349   41.378
0.0140        -167.7772     -230.78      -294.72        63.94   254.4     -0.147     -0.301     -0.090   19.981   20.349   41.378
0.0150        -167.7237     -230.73      -294.04        63.31   251.9     -0.302     -0.225     -0.097   19.981   20.349   41.378
0.0160        -167.7031     -230.71      -294.80        64.09   255.0     -0.449     -0.216     -0.142   19.981   20.349   41.378
0.0170        -167.6614     -230.67      -295.80        65.13   259.2     -0.523     -0.293     -0.220   19.981   20.349   41.377
0.0180        -167.6392     -230.64      -295.50        64.86   258.1     -0.524     -0.427     -0.324   19.981   20.349   41.377
0.0190        -167.6360     -230.64      -294.08        63.44   252.5     -0.457     -0.552     -0.420   19.981   20.349   41.377
0.0200        -167.6549     -230.66      -293.46        62.80   249.9     -0.325     -0.609     -0.461   19.981   20.348   41.377
0.0210        -167.6634     -230.67      -294.43        63.76   253.7     -0.171     -0.572     -0.426   19.981   20.348   41.377
0.0220        -167.6650     -230.67      -295.41        64.74   257.7     -0.080     -0.452     -0.342   19.981   20.348   41.376
0.0230        -167.6145     -230.62      -294.95        64.34   256.0     -0.102     -0.298     -0.275   19.980   20.348   41.376
0.0240        -167.6765     -230.68      -294.27        63.59   253.1     -0.191     -0.162     -0.261   19.980   20.348   41.376
0.0250        -167.7740     -230.78      -294.83        64.05   254.9     -0.274     -0.098     -0.298   19.980   20.348   41.376
0.0260        -167.8043     -230.81      -295.93        65.12   259.2     -0.322     -0.127     -0.365   19.980   20.348   41.376
0.0270        -167.7237     -230.72      -296.00        65.28   259.8     -0.359     -0.240     -0.439   19.980   20.348   41.375
0.0280        -167.7380     -230.74      -294.77        64.03   254.8     -0.386     -0.387     -0.494   19.980   20.348   41.375
0.0290        -167.8114     -230.81      -293.62        62.81   250.0     -0.369     -0.503     -0.494   19.980   20.348   41.375
0.0300        -167.6794     -230.68      -293.88        63.20   251.5     -0.301     -0.542     -0.418   19.980   20.348   41.374
0.0310        -167.5632     -230.56      -294.89        64.33   256.0     -0.219     -0.490     -0.297   19.979   20.347   41.374
0.0320        -167.6277     -230.62      -294.98        64.35   256.1     -0.179     -0.375     -0.192   19.979   20.347   41.374
0.0330        -167.6584     -230.66      -294.24        63.58   253.0     -0.199     -0.256     -0.152   19.979   20.347   41.374
0.0340        -167.7871     -230.78      -294.48        63.70   253.5     -0.252     -0.167     -0.152   19.979   20.347   41.373
0.0350        -167.8107     -230.81      -295.72        64.91   258.3     -0.325     -0.144     -0.175   19.979   20.347   41.373
0.0360        -167.7020     -230.70      -296.52        65.82   262.0     -0.405     -0.193     -0.214   19.979   20.347   41.373
0.0370        -167.7785     -230.77      -296.12        65.34   260.0     -0.458     -0.301     -0.289   19.978   20.347   41.372
0.0380        -167.7846     -230.78      -294.83        64.06   254.9     -0.449     -0.411     -0.379   19.978   20.347   41.372
0.0390        -167.8289     -230.82      -294.60        63.77   253.8     -0.362     -0.451     -0.433   19.978   20.346   41.372
0.0400        -168.0531     -231.04      -295.79        64.75   257.7     -0.234     -0.405     -0.437   19.978   20.346   41.371
0.0410        -168.1353     -231.13      -296.31        65.18   259.4     -0.127     -0.314     -0.407   19.978   20.346   41.371
0.0420        -168.1000     -231.09      -295.59        64.50   256.7     -0.075     -0.229     -0.362   19.978   20.346   41.371
0.0430        -167.9822     -230.97      -295.02        64.05   254.9     -0.085     -0.163     -0.312   19.977   20.346   41.370
0.0440        -167.8019     -230.79      -295.50        64.71   257.5     -0.155     -0.107     -0.278   19.977   20.346   41.370
0.0450        -167.8040     -230.79      -296.55        65.76   261.7     -0.259     -0.082     -0.291   19.977   20.345   41.369
0.0460        -167.9196     -230.91      -296.69        65.78   261.8     -0.348     -0.137     -0.366   19.977   20.345   41.369
0.0470        -168.0891     -231.08      -295.72        64.65   257.3     -0.378     -0.256     -0.454   19.977   20.345   41.369
0.0480        -168.0602     -231.05      -294.98        63.94   254.5     -0.353     -0.380     -0.509   19.976   20.345   41.368
0.0490        -167.9111     -230.89      -295.39        64.49   256.7     -0.295     -0.433     -0.496   19.976   20.345   41.368
0.0500        -168.0221     -231.00      -295.98        64.97   258.6     -0.229     -0.397     -0.413   19.976   20.344   41.367
0.0510        -168.0621     -231.04      -295.56        64.52   256.8     -0.197     -0.319     -0.310   19.976   20.344   41.367
0.0520        -167.8715     -230.85      -294.89        64.04   254.8     -0.216     -0.204     -0.211   19.975   20.344   41.366
0.0530        -167.8346     -230.81      -295.04        64.23   255.6     -0.285     -0.079     -0.158   19.975   20.344   41.366
0.0540        -167.8547     -230.83      -295.72        64.89   258.2     -0.375     -0.010     -0.161   19.975   20.344   41.365
0.0550        -167.9040     -230.88      -296.27        65.39   260.2     -0.433     -0.069     -0.210   19.975   20.343   41.365
0.0560        -167.9984     -230.98      -296.00        65.02   258.8     -0.420     -0.254     -0.284   19.974   20.343   41.365
0.0570        -168.0756     -231.05      -295.36        64.31   255.9     -0.348     -0.462     -0.352   19.974   20.343   41.364
0.0580        -168.0546     -231.03      -295.40        64.37   256.2     -0.265     -0.586     -0.392   19.974   20.343   41.364
0.0590        -167.8985     -230.87      -295.59        64.72   257.6     -0.200     -0.594     -0.391   19.974   20.342   41.363
0.0600        -167.6319     -230.60      -295.04        64.44   256.4     -0.157     -0.515     -0.352   19.973   20.342   41.362
0.0610        -167.7531     -230.72      -294.82        64.10   255.1     -0.135     -0.370     -0.293   19.973   20.342   41.362
0.0620        -167.7503     -230.72      -294.96        64.24   255.7     -0.163     -0.197     -0.263   19.973   20.342   41.361
0.0630        -167.6110     -230.58      -295.16        64.58   257.0     -0.231     -0.056     -0.291   19.972   20.341   41.361
0.0640        -167.4515     -230.42      -295.29        64.87   258.2     -0.295     -0.036     -0.378   19.972   20.341   41.360
0.0650        -167.5971     -230.56      -295.39        64.83   258.0     -0.290     -0.154     -0.480   19.972   20.341   41.360
0.0660        -167.6034     -230.57      -295.13        64.56   256.9     -0.233     -0.344     -0.559   19.971   20.341   41.359
0.0670        -167.5958     -230.56      -295.22        64.66   257.3     -0.177     -0.493     -0.587   19.971   20.340   41.359
0.0680        -167.5998     -230.56      -295.39        64.83   258.0     -0.161     -0.533     -0.560   19.971   20.340   41.358
0.0690        -167.5579     -230.52      -294.97        64.45   256.5     -0.177     -0.451     -0.483   19.971   20.340   41.357
0.0700        -167.6447     -230.60      -294.85        64.25   255.7     -0.217     -0.265     -0.387   19.970   20.339   41.357
0.0710        -167.7118     -230.67      -295.40        64.73   257.6     -0.306     -0.030     -0.307   19.970   20.339   41.356
0.0720        -167.6968     -230.65      -295.82        65.16   259.3     -0.444      0.152     -0.256   19.970   20.339   41.356
0.0730        -167.6559     -230.61      -295.78        65.17   259.3     -0.569      0.174     -0.237   19.969   20.339   41.355
0.0740        -167.6037     -230.56      -295.55        64.99   258.6     -0.606      0.007     -0.238   19.969   20.338   41.355
0.0750        -167.5232     -230.47      -295.49        65.02   258.7     -0.539     -0.264     -0.244   19.968   20.338   41.354
0.0760        -167.5604     -230.51      -295.96        65.45   260.5     -0.425     -0.506     -0.248   19.968   20.338   41.353
0.0770        -167.4071     -230.35      -295.99        65.63   261.2     -0.335     -0.626     -0.255   19.968   20.337   41.353
0.0780        -167.2783     -230.22      -295.28        65.06   258.9     -0.277     -0.597     -0.265   19.967   20.337   41.352
0.0790        -167.4657     -230.41      -295.14        64.73   257.6     -0.241     -0.443     -0.266   19.967   20.337   41.351
0.0800        -167.5094     -230.45      -295.89        65.44   260.4     -0.253     -0.226     -0.249   19.967   20.336   41.351
0.0810        -167.5767     -230.52      -296.69        66.17   263.3     -0.319     -0.023     -0.229   19.966   20.336   41.350
0.0820        -167.6145     -230.55      -296.69        66.13   263.2     -0.399      0.068     -0.249   19.966   20.335   41.349
0.0830        -167.5799     -230.52      -296.41        65.89   262.2     -0.417      0.009     -0.320   19.966   20.335   41.349
0.0840        -167.5229     -230.46      -296.57        66.11   263.1     -0.337     -0.159     -0.411   19.965   20.335   41.348
0.0850        -167.5675     -230.50      -297.25        66.74   265.6     -0.216     -0.348     -0.484   19.965   20.334   41.347
0.0860        -167.5236     -230.46      -297.20        66.74   265.6     -0.146     -0.478     -0.528   19.964   20.334   41.346
0.0870        -167.6378     -230.57      -296.15        65.58   261.0     -0.142     -0.472     -0.522   19.964   20.334   41.346
0.0880        -167.6702     -230.60      -295.25        64.66   257.3     -0.210     -0.340     -0.478   19.964   20.333   41.345
0.0890        -167.6897     -230.62      -295.55        64.93   258.4     -0.337     -0.123     -0.400   19.963   20.333   41.344
0.0900        -167.6405     -230.57      -295.93        65.36   260.1     -0.510      0.080     -0.319   19.963   20.332   41.344
0.0910        -167.6731     -230.60      -295.48        64.88   258.2     -0.663      0.171     -0.267   19.962   20.332   41.343
0.0920        -167.8227     -230.74      -294.74        63.99   254.7     -0.717      0.097     -0.262   19.962   20.332   41.342
0.0930        -167.8637     -230.78      -294.50        63.72   253.6     -0.632     -0.117     -0.280   19.962   20.331   41.341
0.0940        -167.6988     -230.62      -294.82        64.21   255.5     -0.460     -0.389     -0.291   19.961   20.331   41.340
0.0950        -167.5595     -230.47      -294.84        64.37   256.2     -0.305     -0.613     -0.286   19.961   20.330   41.340
0.0960        -167.6121     -230.52      -293.66        63.14   251.3     -0.234     -0.703     -0.269   19.960   20.330   41.339
0.0970        -167.5751     -230.48      -292.20        61.71   245.6     -0.264     -0.647     -0.243   19.960   20.329   41.338
0.0980        -167.5215     -230.43      -292.30        61.87   246.2     -0.359     -0.470     -0.198   19.960   20.329   41.337
0.0990        -167.5795     -230.48      -293.44        62.95   250.5     -0.479     -0.252     -0.166   19.959   20.328   41.336
0.1000        -167.6292     -230.53      -293.71        63.18   251.4     -0.580     -0.093     -0.187   19.959   20.328   41.336
0.1010        -167.5875     -230.49      -293.09        62.60   249.1     -0.600     -0.068     -0.281   19.958   20.328   41.335
0.1020        -167.6863     -230.59      -293.28        62.70   249.5     -0.492     -0.166     -0.387   19.958   20.327   41.334
0.1030        -167.6575     -230.55      -294.53        63.98   254.6     -0.302     -0.331     -0.439   19.957   20.327   41.333
0.1040        -167.6816     -230.58      -295.79        65.22   259.5     -0.142     -0.494     -0.429   19.957   20.326   41.332
0.1050        -167.7264     -230.62      -295.65        65.03   258.8     -0.089     -0.575     -0.367   19.956   20.326   41.331
0.1060        -167.7310     -230.62      -294.69        64.07   255.0     -0.152     -0.543     -0.303   19.956   20.325   41.330
0.1070        -167.6575     -230.54      -294.66        64.12   255.2     -0.285     -0.392     -0.255   19.956   20.325   41.330
0.1080        -167.5771     -230.46      -295.63        65.17   259.3     -0.437     -0.180     -0.238   19.955   20.324   41.329
0.1090        -167.6468     -230.53      -296.18        65.65   261.3     -0.555     -0.024     -0.281   19.955   20.324   41.328
0.1100        -167.6743     -230.56      -295.75        65.19   259.4     -0.590     -0.011     -0.360   19.954   20.323   41.327
0.1110        -167.7674     -230.65      -295.61        64.96   258.5     -0.514     -0.149     -0.410   19.954   20.323   41.326
0.1120        -167.9381     -230.81      -296.32        65.51   260.7     -0.360     -0.361     -0.375   19.953   20.322   41.325
0.1130        -168.0265     -230.90      -297.11        66.21   263.5     -0.220     -0.553     -0.272   19.953   20.322   41.324
0.1140        -168.0231     -230.89      -296.88        65.99   262.6     -0.172     -0.639     -0.145   19.952   20.321   41.323
0.1150        -167.9565     -230.82      -295.56        64.73   257.6     -0.231     -0.608     -0.058   19.952   20.321   41.322
0.1160        -167.9025     -230.77      -294.56        63.79   253.9     -0.350     -0.476     -0.030   19.951   20.320   41.321
0.1170        -167.7388     -230.60      -294.44        63.83   254.0     -0.480     -0.307     -0.060   19.951   20.320   41.320
0.1180        -167.7355     -230.60      -294.52        63.93   254.4     -0.574     -0.199     -0.154   19.950   20.319   41.319
0.1190        -167.8781     -230.74      -294.14        63.40   252.3     -0.591     -0.223     -0.274   19.950   20.319   41.318
0.1200        -167.8433     -230.70      -293.52        62.83   250.0     -0.519     -0.371     -0.364   19.949   20.318   41.317
0.1210        -167.8359     -230.69      -293.50        62.81   250.0     -0.378     -0.562     -0.383   19.949   20.318   41.316
0.1220        -167.7830     -230.63      -293.82        63.19   251.5     -0.237     -0.710     -0.340   19.948   20.317   41.315
0.1230        -167.8454     -230.69      -294.00        63.31   251.9     -0.144     -0.744     -0.261   19.948   20.317   41.314
0.1240        -167.7782     -230.62      -293.51        62.89   250.3     -0.125     -0.656     -0.203   19.947   20.316   41.313
0.1250        -167.7691     -230.61      -293.03        62.42   248.4     -0.175     -0.473     -0.204   19.947   20.316   41.312
0.1260        -167.7046     -230.54      -292.94        62.40   248.3     -0.270     -0.247     -0.264   19.946   20.315   41.311
0.1270        -167.6977     -230.53      -293.22        62.69   249.5     -0.369     -0.069     -0.366   19.946   20.314   41.309
0.1280        -167.6993     -230.53      -293.56        63.03   250.8     -0.432     -0.031     -0.469   19.945   20.314   41.308
0.1290        -167.7777     -230.61      -293.80        63.20   251.5     -0.438     -0.159     -0.522   19.945   20.313   41.307
0.1300        -167.7612     -230.59      -293.90        63.31   251.9     -0.390     -0.384     -0.492   19.944   20.313   41.306
0.1310        -167.8023     -230.63      -294.45        63.82   254.0     -0.314     -0.576     -0.385   19.944   20.312   41.305
0.1320        -167.8160     -230.64      -295.20        64.57   256.9     -0.258     -0.632     -0.242   19.943   20.312   41.304
0.1330        -167.8231     -230.64      -295.55        64.91   258.3     -0.266     -0.544     -0.126   19.943   20.311   41.303
0.1340        -167.7897     -230.60      -295.35        64.74   257.6     -0.336     -0.368     -0.070   19.942   20.311   41.302
0.1350        -167.6876     -230.50      -294.92        64.42   256.4     -0.428     -0.191     -0.081   19.942   20.310   41.300
0.1360        -167.6717     -230.48      -294.80        64.32   256.0     -0.487     -0.091     -0.145   19.941   20.309   41.299
0.1370        -167.7339     -230.54      -295.10        64.56   256.9     -0.484     -0.130     -0.222   19.940   20.309   41.298
0.1380        -167.7556     -230.56      -295.30        64.74   257.6     -0.425     -0.308     -0.286   19.940   20.308   41.297
0.1390        -167.7749     -230.58      -295.11        64.53   256.8     -0.322     -0.544     -0.324   19.939   20.308   41.296
0.1400        -167.9472     -230.75      -295.23        64.49   256.6     -0.202     -0.718     -0.316   19.939   20.307   41.294
0.1410        -167.9552     -230.75      -295.60        64.85   258.1     -0.112     -0.748     -0.251   19.938   20.306   41.293
0.1420        -167.8685     -230.66      -295.79        65.13   259.2     -0.104     -0.653     -0.187   19.938   20.306   41.292
0.1430        -167.8428     -230.63      -295.59        64.96   258.5     -0.157     -0.466     -0.135   19.937   20.305   41.291
0.1440        -167.8541     -230.64      -295.05        64.41   256.3     -0.237     -0.268     -0.148   19.936   20.305   41.289
0.1450        -167.8391     -230.62      -294.60        63.98   254.6     -0.314     -0.122     -0.238   19.936   20.304   41.288
0.1460        -167.8204     -230.60      -294.72        64.11   255.1     -0.364     -0.069     -0.369   19.935   20.304   41.287
0.1470        -167.7944     -230.57      -295.04        64.47   256.6     -0.375     -0.131     -0.497   19.935   20.303   41.285
0.1480        -167.7542     -230.53      -294.88        64.35   256.1     -0.346     -0.292     -0.578   19.934   20.302   41.284
0.1490        -167.8634     -230.63      -294.63        64.00   254.7     -0.278     -0.479     -0.561   19.933   20.302   41.283
0.1500        -167.8294     -230.60      -294.75        64.16   255.3     -0.209     -0.591     -0.443   19.933   20.301   41.282
0.1510        -167.7226     -230.49      -295.26        64.77   257.8     -0.179     -0.572     -0.285   19.932   20.300   41.280
0.1520        -167.5523     -230.31      -295.43        65.12   259.2     -0.198     -0.444     -0.145   19.931   20.300   41.279
0.1530        -167.5946     -230.35      -295.06        64.71   257.5     -0.249     -0.297     -0.077   19.931   20.299   41.278
0.1540        -167.6771     -230.43      -294.51        64.08   255.0     -0.308     -0.209     -0.095   19.930   20.299   41.276
0.1550        -167.7153     -230.47      -294.55        64.08   255.0     -0.351     -0.205     -0.180   19.930   20.298   41.275
0.1560        -167.7389     -230.49      -294.90        64.41   256.3     -0.370     -0.296     -0.309   19.929   20.297   41.273
0.1570        -167.7521     -230.50      -294.53        64.03   254.8     -0.361     -0.460     -0.431   19.928   20.297   41.272
0.1580        -167.7142     -230.46      -293.63        63.18   251.4     -0.320     -0.627     -0.491   19.928   20.296   41.271
0.1590        -167.7460     -230.48      -293.51        63.03   250.8     -0.255     -0.703     -0.455   19.927   20.295   41.269
0.1600        -167.6898     -230.42      -294.03        63.61   253.1     -0.185     -0.653     -0.341   19.926   20.295   41.268
0.1610        -167.5912     -230.32      -294.15        63.83   254.0     -0.126     -0.520     -0.218   19.926   20.294   41.267
0.1620        -167.5795     -230.31      -293.55        63.24   251.7     -0.097     -0.385     -0.158   19.925   20.293   41.265
0.1630        -167.6070     -230.33      -293.01        62.68   249.4     -0.091     -0.286     -0.179   19.924   20.293   41.264
0.1640        -167.7314     -230.45      -293.55        63.09   251.1     -0.104     -0.235     -0.283   19.924   20.292   41.262
0.1650        -167.7141     -230.44      -294.35        63.91   254.3     -0.146     -0.249     -0.465   19.923   20.291   41.261
0.1660        -167.7026     -230.42      -294.13        63.71   253.5     -0.202     -0.334     -0.666   19.922   20.291   41.259
0.1670        -167.6461     -230.36      -293.09        62.73   249.7     -0.241     -0.468     -0.795   19.921   20.290   41.258
0.1680        -167.6372     -230.34      -293.12        62.78   249.8     -0.235     -0.565     -0.782   19.921   20.289   41.256
0.1690        -167.7708     -230.47      -294.46        63.99   254.6     -0.191     -0.547     -0.638   19.920   20.289   41.255
0.1700        -167.6856     -230.38      -295.09        64.71   257.5     -0.153     -0.429     -0.466   19.919   20.288   41.254
0.1710        -167.5220     -230.22      -294.58        64.37   256.2     -0.154     -0.271     -0.343   19.919   20.287   41.252
0.1720        -167.4512     -230.14      -294.33        64.19   255.4     -0.188     -0.117     -0.278   19.918   20.287   41.251
0.1730        -167.5938     -230.28      -295.41        65.12   259.2     -0.238     -0.011     -0.270   19.917   20.286   41.249
0.1740        -167.6045     -230.29      -296.67        66.38   264.2     -0.309     -0.007     -0.327   19.916   20.285   41.248
0.1750        -167.6023     -230.29      -296.65        66.37   264.1     -0.387     -0.128     -0.428   19.916   20.285   41.246
0.1760        -167.5770     -230.26      -295.55        65.30   259.9     -0.445     -0.334     -0.515   19.915   20.284   41.245
0.1770        -167.7058     -230.38      -295.36        64.98   258.6     -0.445     -0.527     -0.531   19.914   20.283   41.243
0.1780        -167.8295     -230.50      -296.09        65.59   261.0     -0.386     -0.618     -0.470   19.913   20.283   41.242
0.1790        -167.8557     -230.52      -296.02        65.50   260.7     -0.298     -0.586     -0.382   19.913   20.282   41.240
0.1800        -167.6520     -230.31      -294.65        64.34   256.1     -0.217     -0.462     -0.324   19.912   20.281   41.239
0.1810        -167.5301     -230.19      -293.73        63.54   252.9     -0.149     -0.281     -0.295   19.911   20.280   41.237
0.1820        -167.6923     -230.35      -294.13        63.79   253.9     -0.116     -0.101     -0.294   19.910   20.280   41.236
0.1830        -167.7599     -230.41      -294.58        64.17   255.4     -0.160      0.009     -0.344   19.909   20.279   41.234
0.1840        -167.7269     -230.38      -293.95        63.58   253.0     -0.275     -0.001     -0.443   19.909   20.278   41.233
0.1850        -167.6379     -230.28      -292.56        62.27   247.8     -0.398     -0.147     -0.558   19.908   20.277   41.231
0.1860        -167.6229     -230.26      -292.15        61.88   246.3     -0.463     -0.360     -0.625   19.907   20.277   41.230
0.1870        -167.7050     -230.34      -292.92        62.58   249.1     -0.462     -0.530     -0.619   19.906   20.276   41.228
0.1880        -167.7846     -230.41      -293.00        62.59   249.1     -0.419     -0.570     -0.577   19.905   20.275   41.226
0.1890        -167.6174     -230.24      -291.80        61.56   245.0     -0.356     -0.471     -0.535   19.905   20.274   41.225
0.1900        -167.4880     -230.11      -291.43        61.33   244.0     -0.282     -0.259     -0.464   19.904   20.274   41.223
0.1910        -167.6330     -230.25      -292.85        62.60   249.1     -0.240     -0.012     -0.353   19.903   20.273   41.222
0.1920        -167.6487     -230.26      -294.05        63.79   253.9     -0.288      0.152     -0.264   19.902   20.272   41.220
0.1930        -167.6061     -230.22      -293.89        63.67   253.4     -0.407      0.146     -0.239   19.901   20.271   41.219
0.1940        -167.5085     -230.12      -293.43        63.31   251.9     -0.514     -0.056     -0.270   19.901   20.271   41.217
0.1950        -167.4106     -230.01      -294.26        64.25   255.7     -0.550     -0.371     -0.314   19.900   20.270   41.216
0.1960        -167.5018     -230.10      -295.87        65.78   261.8     -0.519     -0.657     -0.343   19.899   20.269   41.214
0.1970        -167.4684     -230.06      -296.02        65.96   262.5     -0.462     -0.790     -0.365   19.898   20.268   41.212
0.1980        -167.4472     -230.03      -294.90        64.87   258.2     -0.389     -0.706     -0.373   19.897   20.267   41.211
0.1990        -167.4912     -230.07      -294.64        64.57   257.0     -0.316     -0.430     -0.344   19.896   20.267   41.209
0.2000        -167.5534     -230.13      -295.88        65.75   261.6     -0.276     -0.070     -0.272   19.896   20.266   41.208
0.2010        -167.5117     -230.09      -296.61        66.52   264.7     -0.307      0.216     -0.205   19.895   20.265   41.206
0.2020        -167.4607     -230.03      -295.66        65.62   261.2     -0.392      0.296     -0.198   19.894   20.264   41.204
0.2030        -167.4728     -230.04      -294.60        64.56   256.9     -0.459      0.130     -0.254   19.893   20.263   41.203
0.2040        -167.5823     -230.15      -295.29        65.14   259.2     -0.456     -0.200     -0.339   19.892   20.262   41.201
0.2050        -167.6722     -230.23      -296.66        66.42   264.3     -0.408     -0.542     -0.425   19.891   20.262   41.199
0.2060        -167.6388     -230.19      -296.46        66.26   263.7     -0.368     -0.747     -0.510   19.890   20.261   41.198
0.2070        -167.5151     -230.06      -294.73        64.67   257.3     -0.347     -0.722     -0.574   19.890   20.260   41.196
0.2080        -167.5099     -230.05      -293.88        63.83   254.0     -0.334     -0.467     -0.567   19.889   20.259   41.194
0.2090        -167.5049     -230.04      -294.83        64.79   257.8     -0.335     -0.089     -0.471   19.888   20.258   41.193
0.2100        -167.4864     -230.02      -295.60        65.58   261.0     -0.370      0.227     -0.352   19.887   20.257   41.191
0.2110        -167.4689     -230.00      -294.53        64.53   256.8     -0.435      0.324     -0.276   19.886   20.256   41.189
0.2120        -167.4633     -229.99      -293.28        63.28   251.8     -0.484      0.167     -0.250   19.885   20.256   41.187
0.2130        -167.5250     -230.05      -294.08        64.02   254.8     -0.493     -0.158     -0.255   19.884   20.255   41.186
0.2140        -167.5932     -230.11      -295.84        65.72   261.5     -0.488     -0.500     -0.297   19.883   20.254   41.184
0.2150        -167.5628     -230.08      -296.07        65.99   262.6     -0.506     -0.721     -0.386   19.883   20.253   41.182
0.2160        -167.4494     -229.96      -294.71        64.76   257.7     -0.528     -0.732     -0.484   19.882   20.252   41.181
0.2170        -167.3596     -229.86      -294.02        64.16   255.3     -0.516     -0.514     -0.517   19.881   20.251   41.179
0.2180        -167.4037     -229.90      -295.12        65.23   259.6     -0.476     -0.153     -0.466   19.880   20.250   41.177
0.2190        -167.5205     -230.01      -296.13        66.12   263.1     -0.446      0.178     -0.376   19.879   20.249   41.175
0.2200        -167.6792     -230.17      -295.34        65.17   259.4     -0.440      0.316     -0.306   19.878   20.248   41.174
0.2210        -167.6723     -230.16      -293.92        63.76   253.7     -0.424      0.218     -0.264   19.877   20.247   41.172
0.2220        -167.6613     -230.14      -294.26        64.12   255.2     -0.377     -0.055     -0.260   19.876   20.247   41.170
0.2230        -167.6657     -230.14      -295.79        65.64   261.2     -0.328     -0.381     -0.306   19.875   20.246   41.168
0.2240        -167.7391     -230.21      -296.19        65.97   262.5     -0.318     -0.637     -0.430   19.875   20.245   41.166
0.2250        -167.6406     -230.11      -294.78        64.67   257.4     -0.336     -0.708     -0.588   19.874   20.244   41.165
0.2260        -167.5953     -230.05      -293.79        63.73   253.6     -0.351     -0.547     -0.687   19.873   20.243   41.163
0.2270        -167.6092     -230.06      -294.63        64.57   257.0     -0.373     -0.216     -0.665   19.872   20.242   41.161
0.2280        -167.6763     -230.12      -295.68        65.55   260.9     -0.429      0.125     -0.542   19.871   20.241   41.159
0.2290        -167.7089     -230.15      -294.79        64.64   257.2     -0.515      0.303     -0.395   19.870   20.240   41.158
0.2300        -167.6714     -230.11      -293.05        62.94   250.5     -0.576      0.248     -0.272   19.869   20.239   41.156
0.2310        -167.6899     -230.13      -293.11        62.98   250.7     -0.567      0.009     -0.194   19.868   20.238   41.154
0.2320        -167.8077     -230.24      -294.71        64.47   256.6     -0.511     -0.302     -0.204   19.867   20.237   41.152
0.2330        -167.8270     -230.26      -295.23        64.97   258.6     -0.475     -0.562     -0.332   19.866   20.236   41.150
0.2340        -167.7878     -230.21      -294.12        63.91   254.3     -0.486     -0.664     -0.517   19.865   20.235   41.148
0.2350        -167.7465     -230.16      -293.31        63.15   251.3     -0.528     -0.565     -0.627   19.864   20.234   41.147
0.2360        -167.7781     -230.18      -294.31        64.13   255.2     -0.586     -0.320     -0.576   19.863   20.233   41.145
0.2370        -167.9095     -230.31      -295.66        65.36   260.1     -0.646     -0.063     -0.405   19.863   20.232   41.143
0.2380        -167.9141     -230.31      -295.06        64.75   257.7     -0.678      0.076     -0.229   19.862   20.231   41.141
0.2390        -167.8733     -230.26      -293.65        63.39   252.3     -0.635      0.050     -0.132   19.861   20.230   41.139
0.2400        -167.8530     -230.24      -293.85        63.61   253.1     -0.507     -0.104     -0.129   19.860   20.229   41.137
0.2410        -167.8719     -230.25      -295.24        64.98   258.6     -0.360     -0.324     -0.226   19.859   20.228   41.135
0.2420        -167.8181     -230.20      -295.58        65.39   260.2     -0.273     -0.533     -0.409   19.858   20.227   41.134
0.2430        -167.7861     -230.16      -294.68        64.52   256.8     -0.281     -0.642     -0.616   19.857   20.226   41.132
0.2440        -167.7949     -230.16      -294.18        64.03   254.8     -0.355     -0.582     -0.733   19.856   20.225   41.130
0.2450        -167.7042     -230.06      -295.06        65.00   258.7     -0.448     -0.374     -0.683   19.855   20.223   41.128
0.2460        -167.6186     -229.97      -296.10        66.13   263.2     -0.525     -0.137     -0.520   19.854   20.222   41.126
0.2470        -167.4328     -229.78      -295.20        65.42   260.3     -0.552      0.019     -0.362   19.853   20.221   41.124
0.2480        -167.4986     -229.84      -293.79        63.95   254.5     -0.511      0.036     -0.304   19.852   20.220   41.122
0.2490        -167.5118     -229.85      -293.91        64.07   255.0     -0.407     -0.069     -0.328   19.851   20.219   41.120
0.2500        -167.5432     -229.87      -294.99        65.12   259.1     -0.303     -0.267     -0.412   19.850   20.218   41.118
0.2510        -167.6016     -229.93      -295.09        65.16   259.3     -0.271     -0.489     -0.543   19.849   20.217   41.116
0.2520        -167.6652     -229.98      -294.28        64.30   255.9     -0.335     -0.636     -0.672   19.848   20.216   41.114
0.2530        -167.5693     -229.88      -293.75        63.87   254.2     -0.456     -0.633     -0.715   19.848   20.215   41.113
0.2540        -167.5597     -229.86      -294.55        64.69   257.4     -0.575     -0.481     -0.624   19.847   20.214   41.111
0.2550        -167.5599     -229.85      -295.73        65.88   262.2     -0.657     -0.265     -0.454   19.846   20.213   41.109
0.2560        -167.5114     -229.80      -295.25        65.45   260.5     -0.677     -0.095     -0.319   19.845   20.212   41.107
0.2570        -167.4735     -229.75      -293.69        63.94   254.5     -0.616     -0.038     -0.273   19.844   20.211   41.105
0.2580        -167.6115     -229.89      -293.79        63.90   254.3     -0.487     -0.120     -0.299   19.843   20.209   41.103
0.2590        -167.6233     -229.89      -295.05        65.16   259.3     -0.352     -0.321     -0.364   19.842   20.208   41.101
0.2600        -167.5744     -229.84      -295.23        65.39   260.2     -0.285     -0.573     -0.454   19.841   20.207   41.099
0.2610        -167.5344     -229.79      -294.14        64.35   256.1     -0.311     -0.777     -0.557   19.840   20.206   41.097
0.2620        -167.5399     -229.79      -293.48        63.69   253.5     -0.392     -0.824     -0.623   19.839   20.205   41.095
0.2630        -167.4060     -229.64      -294.00        64.35   256.1     -0.464     -0.673     -0.604   19.838   20.204   41.093
0.2640        -167.6186     -229.85      -295.48        65.63   261.2     -0.499     -0.399     -0.523   19.837   20.203   41.091
0.2650        -167.6537     -229.88      -295.67        65.80   261.8     -0.505     -0.148     -0.443   19.836   20.202   41.089
0.2660        -167.6127     -229.83      -294.35        64.51   256.7     -0.480     -0.032     -0.411   19.835   20.200   41.087
0.2670        -167.5413     -229.75      -293.49        63.74   253.6     -0.419     -0.091     -0.421   19.834   20.199   41.085
0.2680        -167.5648     -229.77      -294.31        64.53   256.8     -0.351     -0.297     -0.448   19.833   20.198   41.083
0.2690        -167.5373     -229.74      -294.91        65.17   259.4     -0.338     -0.571     -0.491   19.832   20.197   41.081
0.2700        -167.4182     -229.61      -293.82        64.21   255.5     -0.415     -0.796     -0.551   19.831   20.196   41.079
0.2710        -167.3527     -229.54      -292.38        62.84   250.1     -0.544     -0.865     -0.600   19.830   20.195   41.077
0.2720        -167.4235     -229.60      -292.35        62.76   249.7     -0.642     -0.736     -0.589   19.829   20.194   41.075
0.2730        -167.3798     -229.54      -293.44        63.90   254.3     -0.676     -0.485     -0.512   19.828   20.192   41.073
0.2740        -167.4862     -229.64      -294.27        64.63   257.2     -0.657     -0.245     -0.406   19.827   20.191   41.071
0.2750        -167.5793     -229.73      -293.68        63.95   254.5     -0.604     -0.138     -0.333   19.826   20.190   41.069
0.2760        -167.4908     -229.63      -292.62        62.99   250.7     -0.517     -0.210     -0.337   19.825   20.189   41.067
0.2770        -167.4439     -229.58      -292.90        63.32   252.0     -0.394     -0.406     -0.402   19.824   20.188   41.065
0.2780        -167.4328     -229.56      -293.94        64.37   256.2     -0.290     -0.653     -0.505   19.823   20.187   41.063
0.2790        -167.5515     -229.67      -294.06        64.38   256.2     -0.268     -0.866     -0.617   19.822   20.186   41.061
0.2800        -167.5317     -229.64      -292.94        63.29   251.9     -0.334     -0.948     -0.702   19.821   20.184   41.059
0.2810        -167.4943     -229.59      -292.27        62.67   249.4     -0.434     -0.856     -0.718   19.820   20.183   41.057
0.2820        -167.4819     -229.57      -293.05        63.48   252.6     -0.503     -0.640     -0.632   19.819   20.182   41.055
0.2830        -167.5452     -229.63      -294.29        64.67   257.3     -0.528     -0.422     -0.490   19.818   20.181   41.053
0.2840        -167.5428     -229.62      -294.38        64.76   257.7     -0.503     -0.290     -0.384   19.817   20.180   41.051
0.2850        -167.4518     -229.52      -293.68        64.16   255.3     -0.422     -0.278     -0.391   19.816   20.179   41.049
0.2860        -167.4721     -229.53      -293.65        64.12   255.2     -0.298     -0.381     -0.509   19.815   20.178   41.047
0.2870        -167.5320     -229.59      -294.35        64.76   257.7     -0.191     -0.569     -0.667   19.814   20.176   41.045
0.2880        -167.5817     -229.63      -294.70        65.08   259.0     -0.180     -0.765     -0.797   19.813   20.175   41.043
0.2890        -167.4899     -229.53      -293.89        64.36   256.1     -0.295     -0.871     -0.869   19.812   20.174   41.041
0.2900        -167.4479     -229.47      -292.88        63.41   252.3     -0.481     -0.839     -0.863   19.811   20.173   41.039
0.2910        -167.4164     -229.43      -292.93        63.50   252.7     -0.629     -0.698     -0.743   19.810   20.172   41.037
0.2920        -167.4439     -229.45      -293.88        64.43   256.4     -0.680     -0.527     -0.556   19.809   20.171   41.035
0.2930        -167.4500     -229.44      -294.44        64.99   258.7     -0.631     -0.397     -0.413   19.808   20.169   41.033
0.2940        -167.4016     -229.39      -294.22        64.83   258.0     -0.519     -0.353     -0.403   19.807   20.168   41.031
0.2950        -167.5014     -229.48      -294.01        64.53   256.8     -0.386     -0.415     -0.522   19.806   20.167   41.029
0.2960        -167.4987     -229.47      -294.13        64.66   257.3     -0.278     -0.557     -0.680   19.804   20.166   41.027
0.2970        -167.4374     -229.40      -294.45        65.05   258.9     -0.262     -0.711     -0.800   19.803   20.165   41.025
0.2980        -167.4782     -229.43      -294.34        64.91   258.3     -0.368     -0.804     -0.850   19.802   20.164   41.023
0.2990        -167.4968     -229.44      -293.69        64.26   255.7     -0.545     -0.805     -0.823   19.801   20.163   41.021
0.3000        -167.5947     -229.52      -293.33        63.81   253.9     -0.695     -0.731     -0.727   19.800   20.161   41.019
0.3010        -167.5859     -229.50      -293.34        63.83   254.0     -0.737     -0.616     -0.594   19.799   20.160   41.017
0.3020        -167.4044     -229.31      -293.53        64.22   255.6     -0.652     -0.505     -0.481   19.798   20.159   41.015
0.3030        -167.4297     -229.33      -293.98        64.65   257.3     -0.489     -0.455     -0.465   19.797   20.158   41.013
0.3040        -167.4956     -229.39      -294.11        64.73   257.6     -0.317     -0.503     -0.556   19.796   20.157   41.011
0.3050        -167.4974     -229.38      -294.07        64.69   257.4     -0.200     -0.638     -0.699   19.795   20.156   41.009
0.3060        -167.5171     -229.39      -294.41        65.02   258.7     -0.191     -0.791     -0.812   19.794   20.154   41.007
0.3070        -167.5167     -229.38      -294.59        65.21   259.5     -0.312     -0.882     -0.857   19.793   20.153   41.005
0.3080        -167.3694     -229.22      -294.00        64.77   257.8     -0.513     -0.870     -0.835   19.792   20.152   41.003
0.3090        -167.4086     -229.25      -293.37        64.12   255.2     -0.707     -0.764     -0.766   19.791   20.151   41.001
0.3100        -167.5385     -229.37      -292.96        63.60   253.1     -0.812     -0.612     -0.659   19.790   20.150   40.999
0.3110        -167.4893     -229.31      -292.92        63.61   253.1     -0.799     -0.473     -0.538   19.789   20.149   40.997
0.3120        -167.5531     -229.36      -293.80        64.44   256.4     -0.703     -0.407     -0.464   19.788   20.148   40.995
0.3130        -167.5981     -229.40      -294.62        65.22   259.5     -0.584     -0.444     -0.480   19.786   20.147   40.993
0.3140        -167.5605     -229.35      -294.63        65.27   259.8     -0.494     -0.576     -0.580   19.785   20.145   40.991
0.3150        -167.5565     -229.34      -294.57        65.23   259.6     -0.463     -0.730     -0.698   19.784   20.144   40.989
0.3160        -167.6102     -229.38      -294.91        65.53   260.8     -0.495     -0.829     -0.765   19.783   20.143   40.987
0.3170        -167.6076     -229.37      -295.10        65.73   261.6     -0.568     -0.833     -0.765   19.782   20.142   40.985
0.3180        -167.5645     -229.32      -294.83        65.52   260.7     -0.652     -0.747     -0.722   19.781   20.141   40.983
0.3190        -167.5491     -229.29      -294.15        64.86   258.1     -0.712     -0.615     -0.653   19.780   20.140   40.981
0.3200        -167.4439     -229.17      -293.56        64.39   256.2     -0.718     -0.498     -0.569   19.779   20.139   40.979
0.3210        -167.4127     -229.13      -294.08        64.95   258.5     -0.664     -0.453     -0.504   19.778   20.137   40.977
0.3220        -167.3576     -229.07      -294.98        65.91   262.3     -0.575     -0.502     -0.505   19.777   20.136   40.975
0.3230        -167.4303     -229.13      -295.24        66.11   263.1     -0.493     -0.630     -0.590   19.776   20.135   40.973
0.3240        -167.5444     -229.24      -295.09        65.85   262.1     -0.452     -0.775     -0.694   19.775   20.134   40.971
0.3250        -167.5706     -229.25      -295.38        66.13   263.2     -0.469     -0.861     -0.741   19.774   20.133   40.969
0.3260        -167.5944     -229.27      -295.88        66.62   265.1     -0.543     -0.845     -0.717   19.773   20.132   40.968
0.3270        -167.4831     -229.14      -295.44        66.30   263.8     -0.659     -0.733     -0.657   19.771   20.131   40.966
0.3280        -167.4104     -229.06      -294.32        65.26   259.7     -0.777     -0.565     -0.587   19.770   20.129   40.964
0.3290        -167.4455     -229.09      -293.45        64.37   256.2     -0.850     -0.417     -0.523   19.769   20.128   40.962
0.3300        -167.5223     -229.15      -293.50        64.35   256.1     -0.847     -0.356     -0.493   19.768   20.127   40.960
0.3310        -167.5944     -229.22      -294.19        64.98   258.6     -0.782     -0.412     -0.536   19.767   20.126   40.958
0.3320        -167.6281     -229.24      -294.47        65.23   259.6     -0.699     -0.554     -0.660   19.766   20.125   40.956
0.3330        -167.6877     -229.29      -294.31        65.02   258.8     -0.646     -0.708     -0.803   19.765   20.124   40.954
0.3340        -167.6966     -229.29      -294.58        65.29   259.8     -0.639     -0.811     -0.877   19.764   20.123   40.952
0.3350        -167.7813     -229.36      -295.48        66.12   263.1     -0.663     -0.830     -0.845   19.763   20.122   40.950
0.3360        -167.7838     -229.35      -295.64        66.29   263.8     -0.695     -0.760     -0.746   19.762   20.120   40.948
0.3370        -167.7615     -229.31      -294.90        65.58   261.0     -0.727     -0.631     -0.651   19.761   20.119   40.946
0.3380        -167.7276     -229.27      -294.15        64.88   258.2     -0.748     -0.489     -0.582   19.760   20.118   40.944
0.3390        -167.6657     -229.20      -294.04        64.84   258.1     -0.744     -0.406     -0.551   19.759   20.117   40.942
0.3400        -167.7013     -229.23      -294.77        65.54   260.8     -0.714     -0.443     -0.581   19.758   20.116   40.940
0.3410        -167.7669     -229.28      -295.28        66.00   262.6     -0.676     -0.591     -0.676   19.757   20.115   40.938
0.3420        -167.7196     -229.22      -295.00        65.78   261.8     -0.662     -0.770     -0.789   19.756   20.114   40.936
0.3430        -167.6733     -229.17      -294.93        65.77   261.7     -0.678     -0.882     -0.831   19.755   20.113   40.934
0.3440        -167.7096     -229.19      -295.89        66.70   265.4     -0.709     -0.883     -0.772   19.754   20.111   40.932
0.3450        -167.7378     -229.20      -296.74        67.54   268.8     -0.729     -0.782     -0.667   19.753   20.110   40.931
0.3460        -167.6551     -229.11      -296.13        67.02   266.7     -0.734     -0.625     -0.587   19.751   20.109   40.929
0.3470        -167.5097     -228.96      -294.69        65.74   261.6     -0.742     -0.474     -0.553   19.750   20.108   40.927
0.3480        -167.4259     -228.86      -293.95        65.09   259.0     -0.752     -0.394     -0.555   19.749   20.107   40.925
0.3490        -167.4164     -228.85      -294.30        65.46   260.5     -0.747     -0.445     -0.599   19.748   20.106   40.923
0.3500        -167.3742     -228.79      -294.50        65.71   261.5     -0.741     -0.620     -0.694   19.747   20.105   40.921
0.3510        -167.3730     -228.78      -293.85        65.07   259.0     -0.766     -0.824     -0.813   19.746   20.104   40.919
0.3520        -167.3407     -228.73      -293.23        64.50   256.7     -0.817     -0.934     -0.883   19.745   20.102   40.917
0.3530        -167.4224     -228.80      -293.87        65.06   258.9     -0.851     -0.895     -0.863   19.744   20.101   40.915
0.3540        -167.5201     -228.89      -295.11        66.22   263.5     -0.830     -0.738     -0.780   19.743   20.100   40.913
0.3550        -167.6043     -228.96      -295.45        66.49   264.6     -0.778     -0.544     -0.704   19.742   20.099   40.912
0.3560        -167.5994     -228.95      -294.49        65.54   260.8     -0.741     -0.383     -0.661   19.741   20.098   40.910
0.3570        -167.5302     -228.87      -293.64        64.77   257.8     -0.735     -0.314     -0.650   19.740   20.097   40.908
0.3580        -167.5560     -228.88      -294.02        65.13   259.2     -0.739     -0.375     -0.670   19.739   20.096   40.906
0.3590        -167.5778     -228.90      -294.53        65.63   261.2     -0.755     -0.554     -0.740   19.738   20.095   40.904
0.3600        -167.6415     -228.95      -294.19        65.24   259.6     -0.796     -0.771     -0.842   19.737   20.093   40.902
0.3610        -167.5137     -228.81      -293.38        64.57   257.0     -0.853     -0.914     -0.906   19.736   20.092   40.900
0.3620        -167.4281     -228.71      -293.43        64.72   257.6     -0.886     -0.918     -0.882   19.735   20.091   40.898
0.3630        -167.4532     -228.72      -294.40        65.67   261.4     -0.862     -0.789     -0.779   19.734   20.090   40.897
0.3640        -167.5590     -228.82      -295.14        66.32   263.9     -0.805     -0.602     -0.657   19.733   20.089   40.895
0.3650        -167.5695     -228.82      -294.52        65.70   261.5     -0.762     -0.435     -0.561   19.732   20.088   40.893
0.3660        -167.6171     -228.86      -293.53        64.67   257.4     -0.748     -0.357     -0.515   19.731   20.087   40.891
0.3670        -167.6751     -228.91      -293.57        64.67   257.3     -0.743     -0.410     -0.540   19.730   20.086   40.889
0.3680        -167.6091     -228.83      -293.90        65.07   258.9     -0.745     -0.578     -0.643   19.729   20.085   40.887
0.3690        -167.5607     -228.77      -293.42        64.65   257.3     -0.776     -0.787     -0.791   19.728   20.083   40.885
0.3700        -167.3828     -228.58      -292.42        63.84   254.1     -0.840     -0.934     -0.909   19.727   20.082   40.884
0.3710        -167.3583     -228.54      -292.24        63.70   253.5     -0.911     -0.946     -0.934   19.726   20.081   40.882
0.3720        -167.4042     -228.57      -292.89        64.31   255.9     -0.944     -0.821     -0.854   19.725   20.080   40.880
0.3730        -167.4753     -228.63      -293.75        65.12   259.1     -0.930     -0.632     -0.716   19.724   20.079   40.878
0.3740        -167.5971     -228.74      -294.20        65.45   260.5     -0.897     -0.470     -0.581   19.723   20.078   40.876
0.3750        -167.6493     -228.79      -294.05        65.26   259.7     -0.863     -0.399     -0.500   19.722   20.077   40.875
0.3760        -167.7043     -228.83      -294.14        65.30   259.9     -0.834     -0.445     -0.511   19.722   20.076   40.873
0.3770        -167.7354     -228.86      -294.48        65.62   261.2     -0.820     -0.586     -0.606   19.721   20.075   40.871
0.3780        -167.5832     -228.69      -294.32        65.63   261.2     -0.841     -0.767     -0.740   19.720   20.074   40.869
0.3790        -167.4610     -228.56      -293.95        65.39   260.2     -0.894     -0.917     -0.846   19.719   20.072   40.867
0.3800        -167.5028     -228.59      -293.95        65.37   260.1     -0.955     -0.973     -0.872   19.718   20.071   40.865
0.3810        -167.5489     -228.62      -294.07        65.45   260.5     -0.986     -0.913     -0.801   19.717   20.070   40.864
0.3820        -167.4512     -228.51      -294.06        65.55   260.9     -0.971     -0.756     -0.659   19.716   20.069   40.862
0.3830        -167.4203     -228.47      -294.46        65.99   262.6     -0.932     -0.577     -0.522   19.715   20.068   40.860
0.3840        -167.6083     -228.65      -295.04        66.40   264.2     -0.885     -0.447     -0.455   19.714   20.067   40.858
0.3850        -167.7876     -228.82      -294.90        66.09   263.0     -0.847     -0.431     -0.497   19.713   20.066   40.856
0.3860        -167.7938     -228.81      -294.25        65.44   260.4     -0.824     -0.539     -0.621   19.712   20.065   40.855
0.3870        -167.6830     -228.69      -293.80        65.11   259.1     -0.818     -0.718     -0.765   19.711   20.064   40.853
0.3880        -167.4600     -228.46      -293.47        65.02   258.7     -0.827     -0.881     -0.862   19.710   20.063   40.851
0.3890        -167.4003     -228.38      -293.35        64.97   258.5     -0.867     -0.970     -0.882   19.709   20.062   40.849
0.3900        -167.3351     -228.31      -292.98        64.67   257.4     -0.919     -0.950     -0.812   19.709   20.060   40.848
0.3910        -167.3833     -228.34      -292.54        64.20   255.5     -0.964     -0.841     -0.690   19.708   20.059   40.846
0.3920        -167.3834     -228.33      -292.87        64.54   256.8     -0.970     -0.685     -0.558   19.707   20.058   40.844
0.3930        -167.4222     -228.36      -294.10        65.74   261.6     -0.935     -0.543     -0.468   19.706   20.057   40.842
0.3940        -167.4255     -228.35      -294.69        66.34   264.0     -0.893     -0.482     -0.478   19.705   20.056   40.840
0.3950        -167.4594     -228.38      -294.26        65.88   262.2     -0.867     -0.523     -0.587   19.704   20.055   40.839
0.3960        -167.4637     -228.37      -293.96        65.59   261.0     -0.844     -0.640     -0.736   19.703   20.054   40.837
0.3970        -167.4471     -228.35      -294.27        65.92   262.3     -0.804     -0.777     -0.858   19.702   20.053   40.835
0.3980        -167.5946     -228.48      -294.83        66.35   264.1     -0.771     -0.879     -0.928   19.702   20.052   40.833
0.3990        -167.6667     -228.54      -294.67        66.13   263.2     -0.768     -0.909     -0.937   19.701   20.051   40.832
0.4000        -167.6065     -228.47      -293.72        65.25   259.7     -0.783     -0.852     -0.885   19.700   20.050   40.830
0.4010        -167.5016     -228.35      -293.30        64.94   258.5     -0.790     -0.720     -0.788   19.699   20.049   40.828
0.4020        -167.4391     -228.28      -293.97        65.69   261.4     -0.781     -0.563     -0.686   19.698   20.048   40.826
0.4030        -167.5312     -228.36      -294.51        66.15   263.2     -0.789     -0.456     -0.633   19.697   20.047   40.825
0.4040        -167.4613     -228.29      -293.82        65.54   260.8     -0.816     -0.444     -0.643   19.696   20.046   40.823
0.4050        -167.4063     -228.22      -292.91        64.69   257.4     -0.847     -0.543     -0.714   19.696   20.044   40.821
0.4060        -167.4844     -228.29      -292.62        64.33   256.0     -0.856     -0.702     -0.804   19.695   20.043   40.819
0.4070        -167.4864     -228.28      -292.73        64.45   256.5     -0.841     -0.843     -0.870   19.694   20.042   40.818
0.4080        -167.4585     -228.24      -292.53        64.29   255.8     -0.837     -0.921     -0.909   19.693   20.041   40.816
0.4090        -167.4440     -228.21      -291.71        63.49   252.7     -0.854     -0.904     -0.902   19.692   20.040   40.814
0.4100        -167.4567     -228.21      -291.30        63.08   251.0     -0.875     -0.800     -0.833   19.691   20.039   40.813
0.4110        -167.4948     -228.24      -291.97        63.73   253.6     -0.872     -0.660     -0.721   19.691   20.038   40.811
0.4120        -167.4967     -228.23      -292.60        64.36   256.1     -0.845     -0.549     -0.624   19.690   20.037   40.809
0.4130        -167.4942     -228.22      -292.63        64.40   256.3     -0.811     -0.523     -0.591   19.689   20.036   40.808
0.4140        -167.5425     -228.26      -292.77        64.51   256.7     -0.776     -0.592     -0.627   19.688   20.035   40.806
0.4150        -167.5958     -228.31      -293.25        64.94   258.4     -0.731     -0.735     -0.701   19.687   20.034   40.804
0.4160        -167.5904     -228.29      -293.68        65.39   260.2     -0.684     -0.910     -0.786   19.686   20.033   40.803
0.4170        -167.5791     -228.27      -293.76        65.49   260.6     -0.664     -1.051     -0.857   19.686   20.032   40.801
0.4180        -167.5505     -228.23      -293.49        65.27   259.7     -0.687     -1.086     -0.884   19.685   20.031   40.799
0.4190        -167.6159     -228.28      -293.53        65.25   259.6     -0.726     -0.993     -0.860   19.684   20.030   40.798
0.4200        -167.6550     -228.31      -294.03        65.72   261.6     -0.742     -0.809     -0.794   19.683   20.029   40.796
0.4210        -167.6366     -228.28      -294.33        66.05   262.8     -0.733     -0.608     -0.719   19.682   20.028   40.794
0.4220        -167.6028     -228.24      -294.17        65.93   262.4     -0.724     -0.466     -0.676   19.682   20.027   40.793
0.4230        -167.6152     -228.24      -294.26        66.01   262.7     -0.716     -0.428     -0.682   19.681   20.026   40.791
0.4240        -167.6529     -228.27      -294.68        66.40   264.3     -0.695     -0.513     -0.732   19.680   20.025   40.789
0.4250        -167.8031     -228.41      -294.94        66.53   264.8     -0.680     -0.713     -0.819   19.679   20.024   40.788
0.4260        -167.7798     -228.38      -294.56        66.18   263.4     -0.682     -0.922     -0.889   19.678   20.023   40.786
0.4270        -167.7805     -228.37      -294.06        65.69   261.4     -0.720     -1.041     -0.925   19.678   20.022   40.784
0.4280        -167.8250     -228.40      -293.77        65.37   260.1     -0.759     -1.010     -0.914   19.677   20.021   40.783
0.4290        -167.8875     -228.45      -293.92        65.47   260.5     -0.763     -0.858     -0.855   19.676   20.020   40.781
0.4300        -167.8740     -228.43      -294.09        65.66   261.3     -0.735     -0.666     -0.769   19.675   20.019   40.780
0.4310        -167.7629     -228.31      -293.75        65.44   260.4     -0.706     -0.520     -0.690   19.674   20.018   40.778
0.4320        -167.6749     -228.21      -293.47        65.26   259.7     -0.689     -0.479     -0.652   19.674   20.017   40.776
0.4330        -167.5945     -228.13      -293.83        65.70   261.5     -0.672     -0.567     -0.664   19.673   20.016   40.775
0.4340        -167.6156     -228.14      -294.33        66.19   263.4     -0.660     -0.760     -0.724   19.672   20.015   40.773
0.4350        -167.5788     -228.09      -294.09        66.00   262.7     -0.669     -0.966     -0.798   19.671   20.014   40.772
0.4360        -167.5141     -228.02      -293.52        65.51   260.7     -0.719     -1.089     -0.865   19.671   20.013   40.770
0.4370        -167.4584     -227.95      -293.16        65.21   259.5     -0.773     -1.070     -0.897   19.670   20.012   40.769
0.4380        -167.4809     -227.96      -293.17        65.21   259.5     -0.787     -0.925     -0.880   19.669   20.011   40.767
0.4390        -167.5235     -227.99      -293.30        65.31   259.9     -0.761     -0.716     -0.821   19.668   20.010   40.765
0.4400        -167.4794     -227.94      -293.07        65.13   259.2     -0.727     -0.533     -0.750   19.667   20.009   40.764
0.4410        -167.3670     -227.82      -292.51        64.69   257.4     -0.692     -0.452     -0.713   19.667   20.008   40.762
0.4420        -167.3899     -227.83      -292.48        64.65   257.3     -0.653     -0.508     -0.740   19.666   20.007   40.761
0.4430        -167.4602     -227.90      -292.95        65.05   258.9     -0.627     -0.664     -0.819   19.665   20.006   40.759
0.4440        -167.4759     -227.90      -293.02        65.12   259.2     -0.649     -0.841     -0.912   19.664   20.005   40.758
0.4450        -167.4212     -227.84      -292.59        64.75   257.7     -0.719     -0.960     -0.980   19.664   20.004   40.756
0.4460        -167.4591     -227.86      -292.21        64.34   256.1     -0.785     -0.978     -1.000   19.663   20.003   40.755
0.4470        -167.4769     -227.87      -292.05        64.18   255.4     -0.795     -0.901     -0.972   19.662   20.002   40.753
0.4480        -167.3988     -227.78      -292.04        64.26   255.7     -0.748     -0.765     -0.894   19.661   20.001   40.752
0.4490        -167.3817     -227.75      -292.05        64.30   255.9     -0.695     -0.637     -0.795   19.661   20.000   40.750
0.4500        -167.3459     -227.71      -291.85        64.14   255.3     -0.674     -0.571     -0.718   19.660   19.999   40.749
0.4510        -167.4119     -227.77      -291.82        64.05   254.9     -0.694     -0.591     -0.693   19.659   19.998   40.747
0.4520        -167.4451     -227.79      -292.08        64.29   255.8     -0.751     -0.683     -0.704   19.658   19.997   40.746
0.4530        -167.4116     -227.75      -292.29        64.54   256.8     -0.836     -0.807     -0.729   19.658   19.996   40.744
0.4540        -167.2979     -227.63      -292.27        64.64   257.3     -0.915     -0.913     -0.751   19.657   19.995   40.743
0.4550        -167.2730     -227.59      -292.18        64.59   257.0     -0.943     -0.972     -0.770   19.656   19.994   40.742
0.4560        -167.2578     -227.57      -291.87        64.31   255.9     -0.896     -0.967     -0.778   19.655   19.993   40.740
0.4570        -167.3217     -227.62      -291.81        64.19   255.4     -0.809     -0.896     -0.771   19.655   19.992   40.739
0.4580        -167.4325     -227.72      -292.14        64.42   256.4     -0.740     -0.773     -0.760   19.654   19.991   40.737
0.4590        -167.5165     -227.80      -292.62        64.83   258.0     -0.715     -0.642     -0.770   19.653   19.990   40.736
0.4600        -167.6063     -227.88      -292.94        65.07   258.9     -0.731     -0.561     -0.807   19.652   19.989   40.734
0.4610        -167.6265     -227.89      -292.86        64.97   258.5     -0.778     -0.573     -0.859   19.652   19.988   40.733
0.4620        -167.6025     -227.86      -292.56        64.71   257.5     -0.842     -0.658     -0.902   19.651   19.988   40.732
0.4630        -167.5864     -227.83      -292.50        64.67   257.4     -0.894     -0.765     -0.918   19.650   19.987   40.730
0.4640        -167.5643     -227.80      -292.59        64.79   257.8     -0.900     -0.850     -0.905   19.649   19.986   40.729
0.4650        -167.6688     -227.89      -292.37        64.47   256.6     -0.862     -0.894     -0.878   19.649   19.985   40.727
0.4660        -167.6391     -227.85      -291.72        63.87   254.2     -0.816     -0.877     -0.848   19.648   19.984   40.726
0.4670        -167.5842     -227.79      -291.39        63.61   253.1     -0.796     -0.795     -0.822   19.647   19.983   40.725
0.4680        -167.5088     -227.70      -291.54        63.84   254.0     -0.802     -0.686     -0.817   19.647   19.982   40.723
0.4690        -167.4982     -227.68      -291.96        64.27   255.8     -0.816     -0.622     -0.837   19.646   19.981   40.722
0.4700        -167.4649     -227.64      -292.09        64.44   256.5     -0.832     -0.647     -0.866   19.645   19.980   40.721
0.4710        -167.5998     -227.77      -291.96        64.19   255.5     -0.852     -0.756     -0.884   19.645   19.979   40.719
0.4720        -167.7776     -227.94      -291.97        64.04   254.8     -0.864     -0.890     -0.886   19.644   19.978   40.718
0.4730        -167.8247     -227.97      -292.25        64.28   255.8     -0.844     -0.983     -0.882   19.643   19.977   40.716
0.4740        -167.6537     -227.79      -292.01        64.22   255.6     -0.795     -1.015     -0.882   19.642   19.977   40.715
0.4750        -167.5079     -227.64      -291.23        63.60   253.1     -0.754     -1.003     -0.877   19.642   19.976   40.714
0.4760        -167.5050     -227.62      -290.73        63.10   251.1     -0.750     -0.958     -0.865   19.641   19.975   40.713
0.4770        -167.5459     -227.66      -290.93        63.28   251.8     -0.777     -0.877     -0.849   19.640   19.974   40.711
0.4780        -167.7342     -227.83      -291.84        64.01   254.7     -0.819     -0.792     -0.852   19.640   19.973   40.710
0.4790        -167.7266     -227.82      -292.55        64.74   257.6     -0.861     -0.745     -0.858   19.639   19.972   40.709
0.4800        -167.5038     -227.59      -292.52        64.93   258.4     -0.895     -0.757     -0.851   19.638   19.971   40.707
0.4810        -167.6618     -227.73      -292.66        64.92   258.4     -0.905     -0.810     -0.838   19.638   19.970   40.706
0.4820        -167.7460     -227.81      -293.21        65.40   260.3     -0.866     -0.853     -0.828   19.637   19.969   40.705
0.4830        -167.6913     -227.75      -293.71        65.96   262.5     -0.781     -0.876     -0.823   19.636   19.969   40.704
0.4840        -167.5233     -227.57      -293.39        65.82   261.9     -0.691     -0.899     -0.813   19.636   19.968   40.702
0.4850        -167.4364     -227.47      -292.65        65.18   259.4     -0.657     -0.926     -0.802   19.635   19.967   40.701
0.4860        -167.5084     -227.54      -292.29        64.76   257.7     -0.705     -0.929     -0.794   19.634   19.966   40.700
0.4870        -167.6185     -227.64      -292.67        65.03   258.8     -0.806     -0.893     -0.795   19.634   19.965   40.699
0.4880        -167.6019     -227.61      -293.16        65.55   260.9     -0.905     -0.855     -0.799   19.633   19.964   40.697
0.4890        -167.5887     -227.59      -293.18        65.59   261.0     -0.969     -0.867     -0.798   19.632   19.963   40.696
0.4900        -167.7000     -227.69      -293.02        65.33   260.0     -0.978     -0.920     -0.772   19.632   19.963   40.695
0.4910        -167.8801     -227.86      -293.30        65.44   260.4     -0.935     -0.963     -0.735   19.631   19.962   40.694
0.4920        -167.9739     -227.95      -293.82        65.87   262.1     -0.854     -0.951     -0.723   19.631   19.961   40.693
0.4930        -167.9129     -227.88      -293.62        65.75   261.6     -0.762     -0.901     -0.750   19.630   19.960   40.691
0.4940        -167.7316     -227.69      -292.64        64.95   258.5     -0.714     -0.850     -0.788   19.629   19.959   40.690
0.4950        -167.5563     -227.51      -291.80        64.30   255.9     -0.765     -0.807     -0.801   19.629   19.958   40.689
0.4960        -167.6104     -227.55      -291.91        64.36   256.1     -0.914     -0.759     -0.788   19.628   19.958   40.688
0.4970        -167.6280     -227.56      -292.35        64.79   257.8     -1.080     -0.726     -0.775   19.627   19.957   40.687
0.4980        -167.4736     -227.40      -292.28        64.88   258.2     -1.169     -0.748     -0.773   19.627   19.956   40.685
0.4990        -167.3826     -227.30      -292.08        64.78   257.8     -1.145     -0.827     -0.782   19.626   19.955   40.684
0.5000        -167.6975     -227.60      -292.59        64.98   258.6     -1.041     -0.909     -0.815   19.626   19.954   40.683
0.5010        -167.8120     -227.71      -293.25        65.54   260.8     -0.868     -0.905     -0.831   19.625   19.954   40.682
0.5020        -167.8881     -227.78      -293.77        65.99   262.6     -0.704     -0.858     -0.862   19.624   19.953   40.681
0.5030        -167.8160     -227.70      -293.65        65.96   262.5     -0.615     -0.807     -0.895   19.624   19.952   40.680
0.5040        -167.6160     -227.49      -293.22        65.73   261.6     -0.645     -0.742     -0.909   19.623   19.951   40.678
0.5050        -167.5710     -227.44      -293.25        65.81   261.9     -0.805     -0.665     -0.941   19.623   19.950   40.677
0.5060        -167.5705     -227.43      -293.50        66.07   262.9     -1.003     -0.601     -1.000   19.622   19.950   40.676
0.5070        -167.5845     -227.44      -293.63        66.19   263.4     -1.124     -0.605     -1.058   19.622   19.949   40.675
0.5080        -167.4671     -227.31      -293.51        66.20   263.5     -1.114     -0.690     -1.079   19.621   19.948   40.674
0.5090        -167.3747     -227.21      -293.40        66.19   263.4     -0.993     -0.802     -1.045   19.620   19.947   40.673
0.5100        -167.5754     -227.40      -293.73        66.33   264.0     -0.828     -0.883     -0.984   19.620   19.946   40.672
0.5110        -167.5906     -227.41      -294.02        66.61   265.1     -0.667     -0.888     -0.908   19.619   19.946   40.671
0.5120        -167.5070     -227.32      -294.14        66.82   265.9     -0.585     -0.828     -0.848   19.619   19.945   40.670
0.5130        -167.4159     -227.22      -293.81        66.60   265.0     -0.647     -0.734     -0.821   19.618   19.944   40.669
0.5140        -167.3725     -227.17      -293.32        66.15   263.3     -0.845     -0.640     -0.816   19.618   19.943   40.668
0.5150        -167.4854     -227.27      -293.32        66.05   262.9     -1.094     -0.594     -0.824   19.617   19.943   40.667
0.5160        -167.5719     -227.35      -293.64        66.29   263.8     -1.257     -0.636     -0.839   19.617   19.942   40.666
0.5170        -167.5251     -227.30      -293.79        66.49   264.6     -1.252     -0.749     -0.864   19.616   19.941   40.665
0.5180        -167.4231     -227.19      -293.55        66.36   264.1     -1.110     -0.879     -0.909   19.616   19.940   40.664
0.5190        -167.3898     -227.15      -293.18        66.03   262.8     -0.914     -0.964     -0.951   19.615   19.939   40.663
0.5200        -167.3912     -227.14      -293.01        65.87   262.2     -0.728     -0.972     -0.943   19.614   19.939   40.662
0.5210        -167.4788     -227.22      -293.32        66.10   263.1     -0.622     -0.915     -0.895   19.614   19.938   40.661
0.5220        -167.4977     -227.23      -293.56        66.33   264.0     -0.651     -0.812     -0.842   19.613   19.937   40.660
0.5230        -167.4868     -227.21      -293.24        66.02   262.7     -0.830     -0.701     -0.833   19.613   19.936   40.659
0.5240        -167.4102     -227.13      -292.66        65.53   260.8     -1.070     -0.629     -0.870   19.612   19.936   40.658
0.5250        -167.4425     -227.15      -292.79        65.63   261.2     -1.239     -0.646     -0.949   19.612   19.935   40.657
0.5260        -167.5398     -227.24      -293.30        66.06   262.9     -1.255     -0.743     -1.036   19.611   19.934   40.656
0.5270        -167.6204     -227.32      -293.38        66.07   262.9     -1.143     -0.873     -1.079   19.611   19.933   40.655
0.5280        -167.6249     -227.31      -292.92        65.61   261.1     -0.983     -0.994     -1.042   19.610   19.933   40.654
0.5290        -167.7320     -227.41      -292.54        65.13   259.2     -0.828     -1.072     -0.936   19.610   19.932   40.653
0.5300        -167.7117     -227.38      -292.56        65.18   259.4     -0.723     -1.078     -0.811   19.610   19.931   40.652
0.5310        -167.5857     -227.25      -292.86        65.61   261.1     -0.728     -1.002     -0.734   19.609   19.931   40.651
0.5320        -167.4373     -227.10      -292.74        65.65   261.2     -0.880     -0.863     -0.731   19.609   19.930   40.650
0.5330        -167.3920     -227.04      -292.27        65.22   259.6     -1.129     -0.727     -0.794   19.608   19.929   40.649
0.5340        -167.4156     -227.06      -292.22        65.16   259.3     -1.334     -0.652     -0.880   19.608   19.928   40.649
0.5350        -167.5326     -227.17      -292.81        65.64   261.2     -1.397     -0.667     -0.955   19.607   19.928   40.648
0.5360        -167.5748     -227.20      -293.18        65.98   262.6     -1.319     -0.748     -0.976   19.607   19.927   40.647
0.5370        -167.5803     -227.20      -293.15        65.95   262.4     -1.172     -0.855     -0.941   19.606   19.926   40.646
0.5380        -167.5651     -227.18      -292.93        65.75   261.7     -1.006     -0.938     -0.866   19.606   19.926   40.645
0.5390        -167.3998     -227.01      -292.71        65.71   261.5     -0.870     -0.958     -0.787   19.606   19.925   40.644
0.5400        -167.3940     -227.00      -292.82        65.83   262.0     -0.837     -0.908     -0.749   19.605   19.924   40.643
0.5410        -167.4391     -227.03      -292.71        65.67   261.4     -0.941     -0.809     -0.754   19.605   19.924   40.643
0.5420        -167.3321     -226.92      -292.04        65.12   259.2     -1.124     -0.714     -0.791   19.604   19.923   40.642
0.5430        -167.5676     -227.15      -292.00        64.85   258.1     -1.299     -0.690     -0.876   19.604   19.922   40.641
0.5440        -167.6745     -227.25      -292.45        65.20   259.5     -1.374     -0.737     -0.968   19.604   19.921   40.640
0.5450        -167.6202     -227.19      -292.62        65.43   260.4     -1.327     -0.826     -1.038   19.603   19.921   40.639
0.5460        -167.5676     -227.13      -292.34        65.21   259.5     -1.195     -0.932     -1.078   19.603   19.920   40.639
0.5470        -167.5188     -227.07      -292.09        65.02   258.8     -1.024     -1.020     -1.083   19.603   19.919   40.638
0.5480        -167.4988     -227.05      -292.26        65.21   259.5     -0.879     -1.049     -1.051   19.602   19.919   40.637
0.5490        -167.4630     -227.00      -292.57        65.56   260.9     -0.836     -1.004     -0.998   19.602   19.918   40.636
0.5500        -167.5042     -227.04      -292.64        65.60   261.1     -0.939     -0.907     -0.950   19.602   19.917   40.636
0.5510        -167.5548     -227.08      -292.29        65.21   259.5     -1.148     -0.802     -0.920   19.601   19.917   40.635
0.5520        -167.5350     -227.06      -291.91        64.85   258.1     -1.351     -0.731     -0.905   19.601   19.916   40.634
0.5530        -167.5519     -227.07      -292.32        65.26   259.7     -1.453     -0.724     -0.918   19.601   19.915   40.633
0.5540        -167.5880     -227.10      -293.24        66.15   263.2     -1.408     -0.775     -0.956   19.600   19.915   40.633
0.5550        -167.5925     -227.10      -293.56        66.47   264.5     -1.249     -0.866     -1.013   19.600   19.914   40.632
0.5560        -167.5128     -227.01      -293.20        66.19   263.4     -1.054     -0.971     -1.060   19.600   19.914   40.631
0.5570        -167.4940     -226.98      -293.10        66.12   263.1     -0.906     -1.057     -1.069   19.599   19.913   40.631
0.5580        -167.4286     -226.91      -293.16        66.25   263.6     -0.856     -1.076     -1.026   19.599   19.912   40.630
0.5590        -167.4686     -226.95      -293.02        66.08   263.0     -0.931     -1.015     -0.958   19.599   19.912   40.629
0.5600        -167.3971     -226.87      -292.31        65.44   260.4     -1.093     -0.913     -0.902   19.599   19.911   40.629
0.5610        -167.4423     -226.91      -291.39        64.48   256.6     -1.253     -0.834     -0.889   19.598   19.910   40.628
0.5620        -167.4325     -226.89      -290.74        63.85   254.1     -1.315     -0.809     -0.922   19.598   19.910   40.628
0.5630        -167.4597     -226.92      -290.92        64.00   254.7     -1.257     -0.844     -1.001   19.598   19.909   40.627
0.5640        -167.4895     -226.94      -291.33        64.39   256.2     -1.113     -0.923     -1.094   19.598   19.909   40.626
0.5650        -167.5035     -226.95      -291.42        64.47   256.6     -0.966     -1.026     -1.156   19.597   19.908   40.626
0.5660        -167.4746     -226.91      -291.43        64.52   256.8     -0.891     -1.120     -1.153   19.597   19.907   40.625
0.5670        -167.4323     -226.87      -291.46        64.59   257.1     -0.904     -1.159     -1.089   19.597   19.907   40.625
0.5680        -167.4822     -226.91      -291.53        64.62   257.1     -0.983     -1.121     -1.010   19.597   19.906   40.624
0.5690        -167.5367     -226.96      -291.68        64.72   257.6     -1.085     -1.028     -0.956   19.596   19.906   40.624
0.5700        -167.5578     -226.97      -291.61        64.64   257.2     -1.171     -0.935     -0.936   19.596   19.905   40.623
0.5710        -167.6094     -227.02      -290.97        63.95   254.5     -1.213     -0.903     -0.949   19.596   19.905   40.623
0.5720        -167.5017     -226.91      -290.19        63.28   251.8     -1.181     -0.935     -0.968   19.596   19.904   40.622
0.5730        -167.4034     -226.81      -290.29        63.48   252.6     -1.096     -1.013     -0.982   19.596   19.903   40.622
0.5740        -167.5837     -226.98      -291.16        64.18   255.4     -1.018     -1.107     -0.990   19.596   19.903   40.621
0.5750        -167.5734     -226.97      -291.74        64.77   257.8     -0.990     -1.171     -0.974   19.595   19.902   40.621
0.5760        -167.4995     -226.89      -291.93        65.04   258.8     -1.020     -1.183     -0.954   19.595   19.902   40.620
0.5770        -167.6046     -226.99      -291.95        64.97   258.5     -1.070     -1.130     -0.947   19.595   19.901   40.620
0.5780        -167.6251     -227.00      -291.90        64.90   258.3     -1.097     -1.018     -0.938   19.595   19.901   40.619
0.5790        -167.5834     -226.96      -292.01        65.05   258.9     -1.100     -0.908     -0.930   19.595   19.900   40.619
0.5800        -167.5115     -226.88      -291.69        64.81   257.9     -1.085     -0.858     -0.936   19.595   19.900   40.619
0.5810        -167.4555     -226.82      -290.78        63.96   254.5     -1.057     -0.889     -0.955   19.594   19.899   40.618
0.5820        -167.4639     -226.83      -290.33        63.50   252.7     -1.022     -0.984     -0.977   19.594   19.899   40.618
0.5830        -167.5279     -226.89      -290.75        63.86   254.1     -0.987     -1.098     -0.989   19.594   19.898   40.617
0.5840        -167.5984     -226.95      -291.43        64.48   256.6     -0.973     -1.178     -0.995   19.594   19.898   40.617
0.5850        -167.6733     -227.02      -291.95        64.93   258.4     -0.995     -1.198     -1.012   19.594   19.897   40.617
0.5860        -167.6846     -227.03      -292.10        65.07   258.9     -1.014     -1.152     -1.033   19.594   19.897   40.616
0.5870        -167.6352     -226.98      -292.00        65.02   258.8     -0.995     -1.077     -1.045   19.594   19.896   40.616
0.5880        -167.6796     -227.02      -292.37        65.35   260.1     -0.948     -1.025     -1.045   19.594   19.896   40.616
0.5890        -167.7392     -227.07      -292.81        65.74   261.6     -0.918     -1.025     -1.030   19.594   19.896   40.615
0.5900        -167.7091     -227.04      -292.33        65.29   259.8     -0.926     -1.064     -0.988   19.594   19.895   40.615
0.5910        -167.6683     -227.00      -291.39        64.39   256.3     -0.976     -1.134     -0.933   19.593   19.895   40.615
0.5920        -167.6400     -226.96      -290.99        64.03   254.8     -1.050     -1.192     -0.873   19.593   19.894   40.614
0.5930        -167.6360     -226.96      -291.24        64.28   255.8     -1.140     -1.195     -0.841   19.593   19.894   40.614
0.5940        -167.6912     -227.01      -291.61        64.60   257.1     -1.224     -1.134     -0.869   19.593   19.893   40.614
0.5950        -167.6038     -226.92      -291.58        64.66   257.3     -1.261     -1.034     -0.942   19.593   19.893   40.614
0.5960        -167.5693     -226.88      -291.29        64.41   256.3     -1.228     -0.954     -1.014   19.593   19.893   40.613
0.5970        -167.5219     -226.83      -291.05        64.22   255.6     -1.132     -0.922     -1.042   19.593   19.892   40.613
0.5980        -167.5568     -226.86      -291.36        64.50   256.7     -1.020     -0.936     -1.032   19.593   19.892   40.613
0.5990        -167.6152     -226.92      -291.51        64.59   257.1     -0.948     -0.974     -1.003   19.593   19.891   40.613
0.6000        -167.6232     -226.92      -290.86        63.93   254.4     -0.943     -1.027     -0.958   19.593   19.891   40.613
0.6010        -167.6341     -226.93      -290.13        63.20   251.5     -0.990     -1.098     -0.912   19.593   19.891   40.612
0.6020        -167.6550     -226.95      -290.17        63.22   251.6     -1.050     -1.149     -0.890   19.593   19.890   40.612
0.6030        -167.5847     -226.88      -290.66        63.78   253.8     -1.091     -1.143     -0.917   19.593   19.890   40.612
0.6040        -167.4793     -226.77      -291.13        64.36   256.1     -1.098     -1.084     -0.991   19.593   19.890   40.612
0.6050        -167.4909     -226.78      -291.48        64.70   257.5     -1.066     -1.023     -1.088   19.593   19.889   40.612
0.6060        -167.4972     -226.78      -291.51        64.73   257.6     -0.982     -0.979     -1.155   19.593   19.889   40.612
0.6070        -167.4452     -226.73      -291.61        64.88   258.2     -0.881     -0.956     -1.168   19.593   19.889   40.611
0.6080        -167.4536     -226.74      -292.15        65.41   260.3     -0.825     -0.944     -1.112   19.593   19.888   40.611
0.6090        -167.5478     -226.83      -292.44        65.61   261.1     -0.850     -0.957     -1.004   19.593   19.888   40.611
0.6100        -167.6013     -226.88      -292.07        65.19   259.4     -0.928     -0.998     -0.878   19.593   19.888   40.611
0.6110        -167.5560     -226.84      -291.76        64.93   258.4     -1.014     -1.067     -0.794   19.593   19.887   40.611
0.6120        -167.5179     -226.80      -291.86        65.07   258.9     -1.074     -1.126     -0.774   19.593   19.887   40.611
0.6130        -167.4805     -226.76      -291.98        65.23   259.6     -1.110     -1.153     -0.823   19.593   19.887   40.611
0.6140        -167.5010     -226.78      -292.21        65.43   260.4     -1.127     -1.143     -0.916   19.593   19.886   40.611
0.6150        -167.5844     -226.86      -292.52        65.66   261.3     -1.117     -1.102     -1.001   19.593   19.886   40.611
0.6160        -167.4765     -226.75      -292.43        65.68   261.4     -1.082     -1.029     -1.025   19.594   19.886   40.611
0.6170        -167.5164     -226.79      -292.53        65.75   261.6     -1.056     -0.945     -0.980   19.594   19.885   40.611
0.6180        -167.6214     -226.89      -292.77        65.88   262.2     -1.051     -0.876     -0.887   19.594   19.885   40.611
0.6190        -167.6705     -226.94      -292.61        65.67   261.4     -1.054     -0.871     -0.800   19.594   19.885   40.611
0.6200        -167.6099     -226.88      -292.40        65.53   260.8     -1.037     -0.940     -0.758   19.594   19.885   40.611
0.6210        -167.5078     -226.78      -292.54        65.76   261.7     -1.004     -1.044     -0.774   19.594   19.884   40.611
0.6220        -167.4522     -226.72      -292.55        65.83   262.0     -0.974     -1.134     -0.853   19.594   19.884   40.611
0.6230        -167.4505     -226.72      -292.52        65.80   261.9     -0.944     -1.168     -0.962   19.594   19.884   40.611
0.6240        -167.5253     -226.79      -292.89        66.10   263.1     -0.896     -1.135     -1.060   19.594   19.884   40.611
0.6250        -167.5685     -226.83      -293.21        66.38   264.1     -0.847     -1.049     -1.108   19.594   19.883   40.611
0.6260        -167.5552     -226.82      -293.13        66.31   263.9     -0.825     -0.942     -1.071   19.595   19.883   40.611
0.6270        -167.5952     -226.86      -293.05        66.19   263.4     -0.850     -0.879     -0.979   19.595   19.883   40.611
0.6280        -167.6776     -226.94      -293.03        66.08   263.0     -0.903     -0.897     -0.889   19.595   19.883   40.611
0.6290        -167.7513     -227.02      -293.05        66.04   262.8     -0.960     -0.977     -0.838   19.595   19.883   40.611
0.6300        -167.7099     -226.97      -292.99        66.02   262.7     -1.015     -1.081     -0.838   19.595   19.882   40.611
0.6310        -167.5822     -226.85      -292.46        65.61   261.1     -1.052     -1.173     -0.899   19.595   19.882   40.611
0.6320        -167.4981     -226.76      -291.90        65.14   259.2     -1.041     -1.212     -1.002   19.595   19.882   40.611
0.6330        -167.5742     -226.84      -291.88        65.04   258.8     -0.985     -1.189     -1.108   19.596   19.882   40.611
0.6340        -167.6146     -226.88      -291.81        64.93   258.4     -0.911     -1.114     -1.148   19.596   19.882   40.612
0.6350        -167.5435     -226.81      -291.29        64.49   256.6     -0.868     -1.015     -1.098   19.596   19.881   40.612
0.6360        -167.4763     -226.74      -290.74        64.00   254.7     -0.881     -0.937     -0.990   19.596   19.881   40.612
0.6370        -167.5491     -226.81      -290.70        63.88   254.2     -0.939     -0.921     -0.884   19.596   19.881   40.612
0.6380        -167.7261     -226.99      -291.11        64.12   255.2     -1.013     -0.978     -0.819   19.596   19.881   40.612
0.6390        -167.7489     -227.01      -291.35        64.34   256.0     -1.079     -1.078     -0.804   19.597   19.881   40.612
0.6400        -167.5719     -226.84      -291.13        64.29   255.8     -1.115     -1.178     -0.842   19.597   19.881   40.613
0.6410        -167.5235     -226.79      -291.18        64.39   256.3     -1.090     -1.229     -0.914   19.597   19.881   40.613
0.6420        -167.6027     -226.87      -291.92        65.05   258.9     -1.003     -1.211     -0.986   19.597   19.880   40.613
0.6430        -167.6594     -226.93      -292.59        65.66   261.3     -0.878     -1.128     -1.010   19.597   19.880   40.613
0.6440        -167.5948     -226.86      -292.51        65.65   261.3     -0.777     -1.017     -0.983   19.598   19.880   40.613
0.6450        -167.5408     -226.81      -292.19        65.38   260.2     -0.736     -0.909     -0.928   19.598   19.880   40.614
0.6460        -167.5062     -226.78      -292.13        65.36   260.1     -0.764     -0.850     -0.896   19.598   19.880   40.614
0.6470        -167.5584     -226.83      -292.47        65.64   261.2     -0.844     -0.867     -0.906   19.598   19.880   40.614
0.6480        -167.5212     -226.79      -292.59        65.80   261.8     -0.940     -0.958     -0.946   19.598   19.880   40.614
0.6490        -167.3947     -226.67      -292.19        65.52   260.8     -1.009     -1.095     -0.995   19.599   19.880   40.615
0.6500        -167.4218     -226.70      -291.82        65.12   259.1     -1.015     -1.226     -1.030   19.599   19.880   40.615
0.6510        -167.4664     -226.74      -291.85        65.11   259.1     -0.955     -1.291     -1.027   19.599   19.880   40.615
0.6520        -167.6221     -226.90      -292.33        65.43   260.4     -0.869     -1.261     -0.972   19.599   19.879   40.616
0.6530        -167.6569     -226.94      -292.34        65.41   260.3     -0.807     -1.151     -0.879   19.600   19.879   40.616
0.6540        -167.6276     -226.91      -291.76        64.85   258.1     -0.808     -1.006     -0.790   19.600   19.879   40.616
0.6550        -167.5282     -226.81      -291.11        64.30   255.9     -0.872     -0.884     -0.746   19.600   19.879   40.617
0.6560        -167.4886     -226.77      -291.16        64.39   256.2     -0.971     -0.845     -0.763   19.600   19.879   40.617
0.6570        -167.4580     -226.74      -291.54        64.80   257.9     -1.066     -0.905     -0.813   19.601   19.879   40.617
0.6580        -167.4332     -226.72      -291.50        64.78   257.8     -1.134     -1.047     -0.876   19.601   19.879   40.618
0.6590        -167.6008     -226.89      -291.35        64.46   256.5     -1.138     -1.194     -0.916   19.601   19.879   40.618
0.6600        -167.5236     -226.82      -291.32        64.51   256.7     -1.054     -1.266     -0.914   19.602   19.879   40.618
0.6610        -167.4324     -226.73      -291.93        65.20   259.5     -0.919     -1.235     -0.870   19.602   19.879   40.619
0.6620        -167.4693     -226.77      -292.86        66.09   263.0     -0.805     -1.121     -0.811   19.602   19.879   40.619
0.6630        -167.4433     -226.74      -293.13        66.39   264.2     -0.748     -0.963     -0.769   19.602   19.879   40.619
0.6640        -167.4344     -226.74      -292.72        65.99   262.6     -0.753     -0.824     -0.774   19.603   19.879   40.620
0.6650        -167.3832     -226.69      -292.57        65.89   262.2     -0.798     -0.760     -0.822   19.603   19.879   40.620
0.6660        -167.4525     -226.76      -293.23        66.47   264.5     -0.862     -0.804     -0.902   19.603   19.879   40.621
0.6670        -167.4689     -226.78      -293.70        66.92   266.3     -0.898     -0.931     -0.981   19.604   19.879   40.621
0.6680        -167.5273     -226.84      -293.68        66.84   266.0     -0.890     -1.096     -1.047   19.604   19.879   40.621
0.6690        -167.6129     -226.93      -293.48        66.55   264.8     -0.850     -1.237     -1.082   19.604   19.879   40.622
0.6700        -167.5036     -226.82      -293.20        66.38   264.2     -0.797     -1.273     -1.057   19.605   19.879   40.622
0.6710        -167.5166     -226.84      -293.52        66.69   265.4     -0.774     -1.181     -0.994   19.605   19.879   40.623
0.6720        -167.5083     -226.83      -294.01        67.18   267.4     -0.806     -0.983     -0.920   19.605   19.879   40.623
0.6730        -167.4261     -226.75      -293.81        67.06   266.9     -0.894     -0.747     -0.863   19.606   19.880   40.624
0.6740        -167.3967     -226.72      -293.26        66.54   264.8     -1.018     -0.573     -0.846   19.606   19.880   40.624
0.6750        -167.4508     -226.78      -293.12        66.34   264.0     -1.129     -0.527     -0.875   19.606   19.880   40.625
0.6760        -167.4770     -226.81      -293.47        66.66   265.3     -1.175     -0.609     -0.916   19.607   19.880   40.625
0.6770        -167.5187     -226.86      -293.82        66.97   266.5     -1.153     -0.785     -0.958   19.607   19.880   40.626
0.6780        -167.5067     -226.85      -293.55        66.71   265.5     -1.080     -0.976     -0.994   19.607   19.880   40.626
0.6790        -167.4828     -226.83      -292.88        66.05   262.9     -0.990     -1.091     -1.022   19.608   19.880   40.627
0.6800        -167.4389     -226.79      -292.66        65.87   262.1     -0.924     -1.074     -1.030   19.608   19.880   40.627
0.6810        -167.4820     -226.83      -293.36        66.53   264.8     -0.911     -0.936     -1.012   19.608   19.880   40.628
0.6820        -167.4519     -226.81      -293.78        66.97   266.5     -0.945     -0.739     -0.980   19.609   19.880   40.628
0.6830        -167.4385     -226.80      -293.17        66.38   264.2     -1.005     -0.581     -0.962   19.609   19.880   40.629
0.6840        -167.4965     -226.86      -292.37        65.52   260.7     -1.050     -0.529     -0.966   19.609   19.880   40.630
0.6850        -167.5446     -226.91      -292.49        65.58   261.0     -1.038     -0.585     -0.977   19.610   19.880   40.630
0.6860        -167.6004     -226.97      -293.26        66.29   263.8     -0.976     -0.730     -0.992   19.610   19.881   40.631
0.6870        -167.6150     -226.99      -293.31        66.32   263.9     -0.902     -0.922     -1.019   19.611   19.881   40.631
0.6880        -167.5681     -226.94      -292.31        65.36   260.1     -0.856     -1.081     -1.056   19.611   19.881   40.632
0.6890        -167.5041     -226.88      -291.55        64.67   257.4     -0.856     -1.119     -1.101   19.611   19.881   40.633
0.6900        -167.6098     -226.99      -292.18        65.18   259.4     -0.905     -1.015     -1.142   19.612   19.881   40.633
0.6910        -167.5614     -226.95      -292.86        65.91   262.3     -0.980     -0.810     -1.162   19.612   19.881   40.634
0.6920        -167.4467     -226.84      -292.36        65.52   260.7     -1.059     -0.614     -1.158   19.613   19.881   40.635
0.6930        -167.3137     -226.71      -291.13        64.42   256.3     -1.104     -0.520     -1.124   19.613   19.881   40.635
0.6940        -167.3637     -226.77      -290.85        64.08   255.0     -1.087     -0.563     -1.049   19.614   19.881   40.636
0.6950        -167.5389     -226.95      -291.75        64.80   257.9     -1.019     -0.712     -0.942   19.614   19.882   40.637
0.6960        -167.6462     -227.06      -292.41        65.35   260.1     -0.948     -0.908     -0.857   19.615   19.882   40.638
0.6970        -167.5733     -226.99      -291.88        64.89   258.3     -0.906     -1.067     -0.835   19.615   19.882   40.638
0.6980        -167.4528     -226.87      -290.95        64.08   255.0     -0.904     -1.124     -0.898   19.615   19.882   40.639
0.6990        -167.3785     -226.80      -291.01        64.20   255.5     -0.932     -1.044     -1.020   19.616   19.882   40.640
0.7000        -167.4243     -226.85      -292.12        65.27   259.7     -0.976     -0.858     -1.138   19.616   19.882   40.641
0.7010        -167.5181     -226.95      -292.83        65.88   262.2     -1.028     -0.670     -1.196   19.617   19.882   40.641
0.7020        -167.4077     -226.85      -292.27        65.42   260.4     -1.060     -0.565     -1.161   19.617   19.883   40.642
0.7030        -167.3904     -226.84      -291.82        64.98   258.6     -1.058     -0.572     -1.048   19.618   19.883   40.643
0.7040        -167.5143     -226.97      -292.45        65.48   260.6     -1.020     -0.661     -0.898   19.618   19.883   40.644
0.7050        -167.4993     -226.95      -293.17        66.21   263.5     -0.959     -0.787     -0.774   19.619   19.883   40.645
0.7060        -167.5423     -227.00      -293.13        66.13   263.2     -0.902     -0.927     -0.744   19.619   19.883   40.646
0.7070        -167.3516     -226.82      -292.29        65.47   260.6     -0.852     -1.014     -0.816   19.620   19.883   40.646
0.7080        -167.4214     -226.89      -292.22        65.33   260.0     -0.840     -1.011     -0.971   19.620   19.883   40.647
0.7090        -167.5289     -227.00      -292.91        65.91   262.3     -0.881     -0.902     -1.135   19.621   19.884   40.648
0.7100        -167.5948     -227.08      -293.37        66.29   263.8     -0.973     -0.735     -1.225   19.621   19.884   40.649
0.7110        -167.5670     -227.05      -292.93        65.88   262.2     -1.084     -0.597     -1.202   19.622   19.884   40.650
0.7120        -167.5916     -227.08      -292.33        65.25   259.7     -1.162     -0.556     -1.083   19.622   19.884   40.651
0.7130        -167.5063     -227.00      -292.08        65.08   259.0     -1.157     -0.610     -0.917   19.623   19.884   40.652
0.7140        -167.4977     -227.00      -292.32        65.32   259.9     -1.089     -0.738     -0.780   19.623   19.884   40.653
0.7150        -167.5239     -227.03      -292.45        65.41   260.3     -0.996     -0.878     -0.719   19.624   19.885   40.654
0.7160        -167.4572     -226.97      -291.81        64.84   258.0     -0.916     -0.980     -0.760   19.625   19.885   40.655
0.7170        -167.2854     -226.80      -290.94        64.14   255.2     -0.879     -0.996     -0.891   19.625   19.885   40.656
0.7180        -167.3999     -226.93      -291.22        64.30   255.9     -0.914     -0.903     -1.058   19.626   19.885   40.656
0.7190        -167.4483     -226.98      -291.90        64.92   258.4     -1.004     -0.705     -1.166   19.626   19.885   40.657
0.7200        -167.4042     -226.94      -292.07        65.12   259.2     -1.110     -0.510     -1.171   19.627   19.886   40.658
0.7210        -167.3602     -226.90      -291.82        64.91   258.3     -1.178     -0.420     -1.080   19.627   19.886   40.659
0.7220        -167.3517     -226.90      -291.76        64.86   258.1     -1.167     -0.450     -0.948   19.628   19.886   40.660
0.7230        -167.3369     -226.89      -292.23        65.33   260.0     -1.075     -0.555     -0.846   19.629   19.886   40.661
0.7240        -167.3245     -226.89      -292.89        66.00   262.7     -0.936     -0.696     -0.814   19.629   19.886   40.663
0.7250        -167.4050     -226.97      -293.10        66.12   263.1     -0.805     -0.851     -0.860   19.630   19.886   40.664
0.7260        -167.3940     -226.97      -292.63        65.66   261.3     -0.724     -0.958     -0.949   19.630   19.887   40.665
0.7270        -167.3897     -226.97      -292.48        65.51   260.7     -0.729     -0.964     -1.061   19.631   19.887   40.666
0.7280        -167.3322     -226.92      -292.68        65.76   261.7     -0.795     -0.840     -1.142   19.632   19.887   40.667
0.7290        -167.3547     -226.95      -292.66        65.71   261.5     -0.897     -0.661     -1.166   19.632   19.887   40.668
0.7300        -167.2699     -226.87      -292.11        65.24   259.6     -0.982     -0.521     -1.103   19.633   19.887   40.669
0.7310        -167.3536     -226.96      -291.78        64.82   258.0     -1.025     -0.506     -0.987   19.633   19.888   40.670
0.7320        -167.3991     -227.01      -291.79        64.78   257.8     -1.004     -0.606     -0.862   19.634   19.888   40.671
0.7330        -167.3789     -227.00      -291.80        64.81   257.9     -0.941     -0.763     -0.768   19.635   19.888   40.672
0.7340        -167.3495     -226.97      -291.52        64.55   256.9     -0.877     -0.913     -0.738   19.635   19.888   40.673
0.7350        -167.4266     -227.06      -291.25        64.20   255.5     -0.841     -1.001     -0.796   19.636   19.889   40.675
0.7360        -167.4379     -227.07      -291.27        64.20   255.5     -0.841     -0.981     -0.940   19.637   19.889   40.676
0.7370        -167.3384     -226.98      -291.36        64.38   256.2     -0.855     -0.830     -1.086   19.637   19.889   40.677
0.7380        -167.3460     -227.00      -291.28        64.29   255.8     -0.910     -0.646     -1.170   19.638   19.889   40.678
0.7390        -167.3713     -227.03      -291.02        64.00   254.7     -0.980     -0.529     -1.125   19.639   19.889   40.679
0.7400        -167.3587     -227.02      -290.92        63.89   254.3     -1.024     -0.548     -0.963   19.639   19.890   40.680
0.7410        -167.3759     -227.05      -291.13        64.08   255.0     -1.014     -0.694     -0.764   19.640   19.890   40.682
0.7420        -167.3708     -227.05      -291.29        64.24   255.7     -0.949     -0.887     -0.620   19.641   19.890   40.683
0.7430        -167.3378     -227.02      -291.19        64.17   255.4     -0.856     -1.039     -0.607   19.641   19.890   40.684
0.7440        -167.4263     -227.11      -291.38        64.27   255.8     -0.754     -1.089     -0.731   19.642   19.891   40.685
0.7450        -167.3276     -227.02      -291.79        64.77   257.8     -0.658     -1.020     -0.934   19.643   19.891   40.687
0.7460        -167.4331     -227.13      -292.29        65.16   259.3     -0.614     -0.889     -1.140   19.643   19.891   40.688
0.7470        -167.5025     -227.21      -292.34        65.13   259.2     -0.637     -0.741     -1.243   19.644   19.891   40.689
0.7480        -167.5004     -227.22      -292.16        64.94   258.4     -0.724     -0.647     -1.195   19.645   19.892   40.690
0.7490        -167.4805     -227.20      -292.13        64.93   258.4     -0.833     -0.672     -1.023   19.645   19.892   40.692
0.7500        -167.4626     -227.19      -292.38        65.18   259.4     -0.895     -0.822     -0.807   19.646   19.892   40.693
0.7510        -167.4472     -227.18      -292.43        65.25   259.7     -0.875     -1.030     -0.645   19.647   19.892   40.694
0.7520        -167.4053     -227.15      -291.91        64.77   257.7     -0.799     -1.200     -0.619   19.647   19.893   40.695
0.7530        -167.3651     -227.11      -291.32        64.21   255.5     -0.690     -1.246     -0.723   19.648   19.893   40.697
0.7540        -167.4007     -227.16      -291.38        64.23   255.6     -0.583     -1.154     -0.897   19.649   19.893   40.698
0.7550        -167.4300     -227.19      -291.80        64.60   257.1     -0.522     -0.973     -1.048   19.650   19.893   40.699
0.7560        -167.4035     -227.17      -291.82        64.65   257.3     -0.550     -0.794     -1.103   19.650   19.894   40.701
0.7570        -167.4040     -227.18      -291.43        64.25   255.7     -0.677     -0.708     -1.041   19.651   19.894   40.702
0.7580        -167.3928     -227.17      -291.13        63.95   254.5     -0.836     -0.746     -0.890   19.652   19.894   40.703
0.7590        -167.4230     -227.21      -291.29        64.08   255.0     -0.949     -0.895     -0.725   19.652   19.895   40.705
0.7600        -167.3762     -227.17      -291.44        64.27   255.8     -0.958     -1.081     -0.612   19.653   19.895   40.706
0.7610        -167.3734     -227.18      -291.27        64.10   255.1     -0.876     -1.224     -0.593   19.654   19.895   40.707
0.7620        -167.3210     -227.13      -290.78        63.65   253.3     -0.739     -1.249     -0.662   19.655   19.896   40.709
0.7630        -167.3061     -227.12      -290.57        63.45   252.5     -0.603     -1.143     -0.785   19.655   19.896   40.710
0.7640        -167.3551     -227.18      -290.93        63.75   253.7     -0.517     -0.955     -0.907   19.656   19.896   40.712
0.7650        -167.3925     -227.22      -291.33        64.10   255.1     -0.516     -0.782     -0.973   19.657   19.897   40.713
0.7660        -167.5306     -227.37      -291.35        63.99   254.6     -0.609     -0.715     -0.973   19.657   19.897   40.714
0.7670        -167.6353     -227.48      -291.33        63.85   254.1     -0.741     -0.770     -0.922   19.658   19.897   40.716
0.7680        -167.5560     -227.41      -291.63        64.23   255.6     -0.835     -0.906     -0.858   19.659   19.898   40.717
0.7690        -167.3966     -227.25      -291.90        64.65   257.3     -0.842     -1.065     -0.815   19.660   19.898   40.719
0.7700        -167.3116     -227.18      -291.95        64.77   257.8     -0.763     -1.182     -0.797   19.660   19.898   40.720
0.7710        -167.3507     -227.22      -292.02        64.80   257.9     -0.648     -1.195     -0.800   19.661   19.899   40.721
0.7720        -167.3698     -227.25      -291.99        64.74   257.6     -0.548     -1.072     -0.815   19.662   19.899   40.723
0.7730        -167.4020     -227.29      -292.19        64.90   258.3     -0.509     -0.870     -0.841   19.662   19.899   40.724
0.7740        -167.3948     -227.29      -292.63        65.34   260.0     -0.533     -0.698     -0.860   19.663   19.900   40.726
0.7750        -167.4442     -227.34      -292.59        65.24   259.6     -0.603     -0.658     -0.872   19.664   19.900   40.727
0.7760        -167.6002     -227.51      -292.17        64.66   257.3     -0.690     -0.762     -0.883   19.665   19.901   40.729
0.7770        -167.6255     -227.54      -292.15        64.61   257.1     -0.757     -0.928     -0.893   19.665   19.901   40.730
0.7780        -167.3961     -227.32      -292.05        64.73   257.6     -0.781     -1.073     -0.888   19.666   19.901   40.732
0.7790        -167.3046     -227.24      -291.80        64.56   256.9     -0.766     -1.160     -0.861   19.667   19.902   40.733
0.7800        -167.3150     -227.25      -291.87        64.62   257.2     -0.726     -1.161     -0.817   19.668   19.902   40.735
0.7810        -167.3210     -227.27      -291.84        64.57   257.0     -0.669     -1.056     -0.781   19.668   19.903   40.736
0.7820        -167.3616     -227.32      -291.64        64.32   256.0     -0.611     -0.890     -0.784   19.669   19.903   40.738
0.7830        -167.4340     -227.40      -291.91        64.51   256.7     -0.564     -0.749     -0.834   19.670   19.903   40.739
0.7840        -167.5138     -227.48      -292.27        64.79   257.8     -0.533     -0.695     -0.887   19.671   19.904   40.741
0.7850        -167.4267     -227.40      -292.27        64.87   258.1     -0.544     -0.756     -0.929   19.671   19.904   40.742
0.7860        -167.5181     -227.50      -292.43        64.93   258.4     -0.611     -0.900     -0.950   19.672   19.905   40.744
0.7870        -167.3369     -227.33      -292.11        64.78   257.8     -0.688     -1.042     -0.926   19.673   19.905   40.745
0.7880        -167.2444     -227.24      -291.93        64.69   257.4     -0.734     -1.143     -0.877   19.673   19.906   40.747
0.7890        -167.2643     -227.27      -292.47        65.19   259.4     -0.723     -1.167     -0.827   19.674   19.906   40.748
0.7900        -167.3854     -227.40      -292.94        65.54   260.8     -0.662     -1.096     -0.808   19.675   19.906   40.750
0.7910        -167.4222     -227.45      -292.63        65.18   259.4     -0.584     -0.938     -0.828   19.676   19.907   40.751
0.7920        -167.4236     -227.45      -292.44        64.99   258.6     -0.536     -0.758     -0.870   19.676   19.907   40.753
0.7930        -167.4456     -227.48      -292.74        65.26   259.7     -0.528     -0.642     -0.878   19.677   19.908   40.755
0.7940        -167.3850     -227.43      -293.20        65.77   261.7     -0.561     -0.658     -0.840   19.678   19.908   40.756
0.7950        -167.3699     -227.42      -293.45        66.03   262.8     -0.636     -0.812     -0.793   19.679   19.909   40.758
0.7960        -167.3615     -227.42      -292.68        65.26   259.7     -0.723     -1.027     -0.756   19.679   19.909   40.759
0.7970        -167.3187     -227.39      -291.68        64.30   255.9     -0.779     -1.202     -0.730   19.680   19.910   40.761
0.7980        -167.3674     -227.44      -291.94        64.49   256.7     -0.779     -1.255     -0.723   19.681   19.910   40.763
0.7990        -167.3835     -227.47      -292.33        64.86   258.1     -0.726     -1.150     -0.741   19.682   19.911   40.764
0.8000        -167.3521     -227.45      -291.57        64.13   255.2     -0.660     -0.945     -0.807   19.682   19.911   40.766
0.8010        -167.3996     -227.50      -290.69        63.18   251.4     -0.616     -0.729     -0.891   19.683   19.912   40.767
0.8020        -167.4478     -227.56      -290.44        62.88   250.2     -0.615     -0.580     -0.935   19.684   19.912   40.769
0.8030        -167.3945     -227.51      -290.79        63.28   251.8     -0.658     -0.540     -0.905   19.685   19.913   40.771
0.8040        -167.4056     -227.53      -291.42        63.89   254.3     -0.748     -0.637     -0.839   19.685   19.913   40.772
0.8050        -167.4743     -227.61      -291.15        63.55   252.9     -0.847     -0.835     -0.772   19.686   19.914   40.774
0.8060        -167.4661     -227.61      -290.34        62.73   249.7     -0.897     -1.029     -0.712   19.687   19.914   40.776
0.8070        -167.4198     -227.57      -290.73        63.16   251.4     -0.858     -1.119     -0.675   19.688   19.915   40.777
0.8080        -167.3442     -227.50      -291.76        64.26   255.7     -0.750     -1.069     -0.677   19.688   19.915   40.779
0.8090        -167.3123     -227.48      -291.83        64.35   256.1     -0.636     -0.931     -0.731   19.689   19.916   40.781
0.8100        -167.2494     -227.43      -291.21        63.78   253.8     -0.569     -0.775     -0.800   19.690   19.916   40.782
0.8110        -167.2850     -227.47      -291.23        63.77   253.8     -0.578     -0.675     -0.840   19.691   19.917   40.784
0.8120        -167.3638     -227.55      -292.15        64.59   257.1     -0.646     -0.662     -0.815   19.691   19.917   40.786
0.8130        -167.5410     -227.74      -293.43        65.69   261.4     -0.736     -0.752     -0.755   19.692   19.918   40.788
0.8140        -167.5880     -227.80      -293.58        65.78   261.8     -0.792     -0.906     -0.690   19.693   19.919   40.789
0.8150        -167.4894     -227.71      -292.83        65.12   259.2     -0.785     -1.052     -0.639   19.694   19.919   40.791
0.8160        -167.4310     -227.66      -293.07        65.41   260.3     -0.729     -1.093     -0.609   19.695   19.920   40.793
0.8170        -167.3517     -227.58      -293.99        66.41   264.3     -0.669     -0.980     -0.603   19.695   19.920   40.794
0.8180        -167.2677     -227.51      -293.91        66.40   264.3     -0.648     -0.767     -0.637   19.696   19.921   40.796
0.8190        -167.2680     -227.52      -292.90        65.38   260.2     -0.673     -0.576     -0.712   19.697   19.921   40.798
0.8200        -167.3110     -227.57      -292.32        64.76   257.7     -0.717     -0.489     -0.796   19.698   19.922   40.799
0.8210        -167.2656     -227.53      -292.67        65.14   259.2     -0.761     -0.515     -0.847   19.698   19.922   40.801
0.8220        -167.4000     -227.67      -293.47        65.80   261.8     -0.803     -0.650     -0.866   19.699   19.923   40.803
0.8230        -167.4701     -227.75      -293.26        65.51   260.7     -0.829     -0.838     -0.842   19.700   19.924   40.805
0.8240        -167.4368     -227.73      -292.25        64.52   256.8     -0.816     -0.995     -0.769   19.701   19.924   40.806
0.8250        -167.4300     -227.73      -291.99        64.26   255.7     -0.755     -1.053     -0.678   19.702   19.925   40.808
0.8260        -167.4757     -227.78      -292.47        64.69   257.4     -0.651     -0.986     -0.601   19.702   19.925   40.810
0.8270        -167.5386     -227.85      -292.63        64.77   257.8     -0.545     -0.854     -0.588   19.703   19.926   40.812
0.8280        -167.5011     -227.82      -292.07        64.25   255.7     -0.475     -0.734     -0.654   19.704   19.927   40.813
0.8290        -167.4528     -227.78      -291.48        63.70   253.5     -0.463     -0.673     -0.765   19.705   19.927   40.815
0.8300        -167.4354     -227.77      -291.64        63.87   254.2     -0.522     -0.682     -0.869   19.706   19.928   40.817
0.8310        -167.4509     -227.80      -292.43        64.63   257.2     -0.649     -0.751     -0.926   19.706   19.928   40.819
0.8320        -167.4812     -227.84      -292.74        64.90   258.3     -0.795     -0.847     -0.919   19.707   19.929   40.820
0.8330        -167.4509     -227.81      -292.34        64.52   256.8     -0.882     -0.921     -0.840   19.708   19.930   40.822
0.8340        -167.4037     -227.78      -292.43        64.66   257.3     -0.863     -0.941     -0.708   19.709   19.930   40.824
0.8350        -167.4118     -227.79      -293.07        65.27   259.8     -0.741     -0.886     -0.570   19.710   19.931   40.826
0.8360        -167.4493     -227.84      -293.31        65.47   260.5     -0.577     -0.763     -0.485   19.710   19.931   40.828
0.8370        -167.4124     -227.81      -293.29        65.48   260.6     -0.460     -0.618     -0.499   19.711   19.932   40.829
0.8380        -167.3280     -227.73      -293.39        65.66   261.3     -0.448     -0.513     -0.604   19.712   19.933   40.831
0.8390        -167.2622     -227.67      -293.36        65.69   261.4     -0.536     -0.488     -0.749   19.713   19.933   40.833
0.8400        -167.2651     -227.68      -293.43        65.75   261.6     -0.690     -0.551     -0.884   19.714   19.934   40.835
0.8410        -167.3584     -227.78      -293.71        65.92   262.4     -0.855     -0.670     -0.961   19.714   19.934   40.836
0.8420        -167.4531     -227.89      -293.68        65.79   261.8     -0.959     -0.783     -0.932   19.715   19.935   40.838
0.8430        -167.4192     -227.87      -293.42        65.55   260.9     -0.950     -0.848     -0.807   19.716   19.936   40.840
0.8440        -167.4122     -227.87      -293.28        65.42   260.3     -0.807     -0.845     -0.641   19.717   19.936   40.842
0.8450        -167.4678     -227.93      -292.94        65.01   258.7     -0.585     -0.780     -0.523   19.718   19.937   40.844
0.8460        -167.4855     -227.96      -292.53        64.57   257.0     -0.384     -0.668     -0.501   19.718   19.938   40.846
0.8470        -167.4845     -227.96      -292.66        64.70   257.5     -0.308     -0.547     -0.576   19.719   19.938   40.847
0.8480        -167.4137     -227.90      -292.83        64.93   258.4     -0.399     -0.488     -0.714   19.720   19.939   40.849
0.8490        -167.4656     -227.95      -292.71        64.75   257.7     -0.611     -0.539     -0.870   19.721   19.939   40.851
0.8500        -167.4521     -227.95      -292.66        64.71   257.5     -0.841     -0.673     -0.978   19.722   19.940   40.853
0.8510        -167.3877     -227.90      -293.00        65.10   259.1     -1.002     -0.830     -0.988   19.722   19.941   40.855
0.8520        -167.3921     -227.91      -293.32        65.41   260.3     -1.022     -0.950     -0.879   19.723   19.941   40.857
0.8530        -167.4235     -227.95      -293.34        65.38   260.2     -0.870     -0.988     -0.685   19.724   19.942   40.858
0.8540        -167.4299     -227.97      -293.01        65.04   258.8     -0.608     -0.929     -0.509   19.725   19.943   40.860
0.8550        -167.4032     -227.95      -292.61        64.66   257.3     -0.363     -0.778     -0.423   19.726   19.943   40.862
0.8560        -167.4568     -228.01      -292.89        64.88   258.2     -0.269     -0.586     -0.442   19.726   19.944   40.864
0.8570        -167.4549     -228.01      -293.51        65.50   260.7     -0.372     -0.442     -0.551   19.727   19.944   40.866
0.8580        -167.4305     -227.99      -293.57        65.58   261.0     -0.621     -0.422     -0.727   19.728   19.945   40.868
0.8590        -167.4614     -228.03      -293.12        65.09   259.0     -0.896     -0.524     -0.908   19.729   19.946   40.869
0.8600        -167.4747     -228.06      -293.05        64.99   258.6     -1.094     -0.690     -0.999   19.730   19.946   40.871
0.8610        -167.4595     -228.05      -293.38        65.33   260.0     -1.146     -0.840     -0.944   19.731   19.947   40.873
0.8620        -167.5495     -228.15      -293.45        65.29   259.8     -1.022     -0.906     -0.782   19.731   19.948   40.875
0.8630        -167.6170     -228.23      -292.99        64.76   257.7     -0.775     -0.856     -0.628   19.732   19.948   40.877
0.8640        -167.6326     -228.26      -292.39        64.13   255.2     -0.519     -0.692     -0.566   19.733   19.949   40.879
0.8650        -167.6482     -228.28      -292.19        63.91   254.4     -0.367     -0.464     -0.605   19.734   19.950   40.881
0.8660        -167.6582     -228.29      -292.62        64.32   256.0     -0.374     -0.275     -0.714   19.735   19.950   40.883
0.8670        -167.6645     -228.31      -293.14        64.84   258.0     -0.519     -0.226     -0.852   19.736   19.951   40.885
0.8680        -167.6182     -228.27      -293.14        64.88   258.2     -0.724     -0.345     -0.969   19.736   19.952   40.886
0.8690        -167.5582     -228.22      -293.16        64.94   258.4     -0.903     -0.570     -0.999   19.737   19.952   40.888
0.8700        -167.5060     -228.18      -293.74        65.57   260.9     -0.984     -0.800     -0.911   19.738   19.953   40.890
0.8710        -167.4597     -228.14      -294.30        66.16   263.3     -0.920     -0.944     -0.745   19.739   19.953   40.892
0.8720        -167.4715     -228.16      -294.31        66.15   263.2     -0.731     -0.958     -0.596   19.740   19.954   40.894
0.8730        -167.4318     -228.13      -293.83        65.70   261.5     -0.502     -0.832     -0.525   19.741   19.955   40.896
0.8740        -167.4056     -228.11      -293.61        65.50   260.7     -0.341     -0.610     -0.530   19.741   19.955   40.898
0.8750        -167.3539     -228.07      -294.03        65.97   262.5     -0.311     -0.393     -0.577   19.742   19.956   40.900
0.8760        -167.2786     -228.00      -294.57        66.57   264.9     -0.415     -0.298     -0.647   19.743   19.957   40.902
0.8770        -167.2557     -227.98      -294.44        66.46   264.5     -0.604     -0.359     -0.727   19.744   19.957   40.904
0.8780        -167.3148     -228.05      -294.07        66.03   262.8     -0.812     -0.525     -0.778   19.745   19.958   40.906
0.8790        -167.2733     -228.01      -294.26        66.25   263.6     -0.971     -0.711     -0.766   19.746   19.959   40.908
0.8800        -167.3188     -228.07      -294.72        66.65   265.2     -1.013     -0.832     -0.697   19.746   19.959   40.910
0.8810        -167.5808     -228.34      -294.68        66.33   264.0     -0.920     -0.851     -0.643   19.747   19.960   40.911
0.8820        -167.5425     -228.31      -293.89        65.57   261.0     -0.736     -0.754     -0.655   19.748   19.961   40.913
0.8830        -167.4127     -228.19      -293.24        65.05   258.9     -0.547     -0.561     -0.720   19.749   19.961   40.915
0.8840        -167.4282     -228.21      -293.22        65.01   258.7     -0.437     -0.362     -0.799   19.750   19.962   40.917
0.8850        -167.4313     -228.22      -293.54        65.31   259.9     -0.431     -0.262     -0.840   19.751   19.963   40.919
0.8860        -167.4381     -228.24      -293.62        65.38   260.2     -0.520     -0.321     -0.842   19.752   19.963   40.921
0.8870        -167.4395     -228.25      -293.34        65.10   259.1     -0.670     -0.495     -0.812   19.752   19.964   40.923
0.8880        -167.4928     -228.31      -293.63        65.32   260.0     -0.833     -0.692     -0.755   19.753   19.964   40.925
0.8890        -167.5401     -228.37      -294.19        65.82   261.9     -0.935     -0.827     -0.688   19.754   19.965   40.927
0.8900        -167.5432     -228.38      -294.12        65.74   261.6     -0.921     -0.856     -0.655   19.755   19.966   40.929
0.8910        -167.5014     -228.35      -293.76        65.41   260.3     -0.799     -0.769     -0.678   19.756   19.966   40.931
0.8920        -167.4947     -228.35      -293.55        65.20   259.5     -0.651     -0.608     -0.735   19.757   19.967   40.933
0.8930        -167.4325     -228.30      -293.19        64.90   258.3     -0.554     -0.447     -0.752   19.758   19.968   40.935
0.8940        -167.3820     -228.25      -293.08        64.83   258.0     -0.551     -0.379     -0.709   19.758   19.968   40.937
0.8950        -167.4131     -228.29      -293.33        65.04   258.8     -0.622     -0.429     -0.645   19.759   19.969   40.939
0.8960        -167.4212     -228.31      -293.34        65.03   258.8     -0.719     -0.547     -0.606   19.760   19.970   40.941
0.8970        -167.4458     -228.34      -293.53        65.19   259.4     -0.820     -0.662     -0.608   19.761   19.970   40.943
0.8980        -167.4953     -228.40      -294.08        65.68   261.4     -0.900     -0.727     -0.633   19.762   19.971   40.945
0.8990        -167.5005     -228.41      -294.21        65.80   261.9     -0.913     -0.721     -0.664   19.763   19.972   40.947
0.9000        -167.4754     -228.40      -294.06        65.66   261.3     -0.831     -0.656     -0.703   19.764   19.972   40.949
0.9010        -167.4470     -228.38      -294.13        65.76   261.7     -0.690     -0.562     -0.748   19.765   19.973   40.951
0.9020        -167.4497     -228.39      -294.10        65.71   261.5     -0.564     -0.473     -0.775   19.765   19.974   40.953
0.9030        -167.4438     -228.39      -293.88        65.49   260.6     -0.508     -0.425     -0.768   19.766   19.974   40.955
0.9040        -167.4136     -228.37      -293.94        65.57   260.9     -0.509     -0.442     -0.735   19.767   19.975   40.957
0.9050        -167.3901     -228.35      -294.05        65.70   261.5     -0.541     -0.522     -0.709   19.768   19.975   40.959
0.9060        -167.4067     -228.38      -294.06        65.68   261.4     -0.598     -0.624     -0.700   19.769   19.976   40.961
0.9070        -167.3968     -228.38      -294.17        65.79   261.8     -0.675     -0.700     -0.687   19.770   19.977   40.963
0.9080        -167.4252     -228.41      -294.36        65.95   262.4     -0.732     -0.724     -0.668   19.771   19.977   40.965
0.9090        -167.3717     -228.37      -294.33        65.96   262.5     -0.715     -0.694     -0.662   19.772   19.978   40.967
0.9100        -167.4788     -228.48      -294.34        65.86   262.1     -0.628     -0.636     -0.685   19.773   19.979   40.969
0.9110        -167.4976     -228.51      -293.93        65.42   260.3     -0.526     -0.576     -0.706   19.773   19.979   40.971
0.9120        -167.5367     -228.56      -293.24        64.68   257.4     -0.475     -0.546     -0.690   19.774   19.980   40.973
0.9130        -167.5168     -228.55      -293.00        64.45   256.5     -0.485     -0.554     -0.626   19.775   19.981   40.976
0.9140        -167.4388     -228.47      -293.43        64.95   258.5     -0.535     -0.590     -0.552   19.776   19.981   40.978
0.9150        -167.3001     -228.34      -293.39        65.05   258.9     -0.616     -0.637     -0.521   19.777   19.982   40.980
0.9160        -167.3313     -228.38      -292.92        64.54   256.9     -0.719     -0.673     -0.544   19.778   19.983   40.982
0.9170        -167.4959     -228.56      -293.01        64.46   256.5     -0.800     -0.671     -0.580   19.779   19.983   40.984
0.9180        -167.5981     -228.67      -293.64        64.97   258.6     -0.804     -0.641     -0.601   19.780   19.984   40.986
0.9190        -167.5803     -228.66      -294.04        65.38   260.2     -0.716     -0.613     -0.611   19.780   19.984   40.988
0.9200        -167.4683     -228.55      -293.68        65.13   259.2     -0.582     -0.603     -0.620   19.781   19.985   40.990
0.9210        -167.4414     -228.53      -293.04        64.51   256.7     -0.484     -0.613     -0.616   19.782   19.986   40.992
0.9220        -167.3526     -228.45      -292.87        64.42   256.4     -0.456     -0.628     -0.561   19.783   19.986   40.994
0.9230        -167.3481     -228.45      -293.63        65.18   259.4     -0.499     -0.658     -0.482   19.784   19.987   40.996
0.9240        -167.4035     -228.52      -294.09        65.58   261.0     -0.602     -0.699     -0.429   19.785   19.988   40.998
0.9250        -167.4350     -228.56      -293.49        64.93   258.4     -0.736     -0.732     -0.427   19.786   19.988   41.000
0.9260        -167.4015     -228.53      -293.08        64.55   256.9     -0.842     -0.730     -0.448   19.787   19.989   41.002
0.9270        -167.4364     -228.57      -293.85        65.27   259.8     -0.851     -0.697     -0.464   19.788   19.990   41.004
0.9280        -167.4523     -228.60      -294.43        65.83   262.0     -0.747     -0.658     -0.489   19.788   19.990   41.006
0.9290        -167.5866     -228.74      -293.80        65.06   258.9     -0.593     -0.628     -0.530   19.789   19.991   41.008
0.9300        -167.5119     -228.67      -292.48        63.81   253.9     -0.485     -0.621     -0.549   19.790   19.992   41.010
0.9310        -167.5136     -228.68      -292.11        63.43   252.4     -0.476     -0.636     -0.499   19.791   19.992   41.012
0.9320        -167.4350     -228.61      -292.71        64.10   255.1     -0.557     -0.663     -0.405   19.792   19.993   41.014
0.9330        -167.4526     -228.63      -293.21        64.57   257.0     -0.695     -0.691     -0.360   19.793   19.994   41.016
0.9340        -167.4878     -228.68      -292.57        63.89   254.3     -0.834     -0.707     -0.415   19.794   19.994   41.018
0.9350        -167.6028     -228.80      -292.12        63.32   252.0     -0.905     -0.697     -0.524   19.795   19.995   41.020
0.9360        -167.6223     -228.83      -292.97        64.14   255.3     -0.857     -0.647     -0.596   19.796   19.996   41.022
0.9370        -167.6365     -228.85      -294.11        65.26   259.7     -0.711     -0.588     -0.618   19.797   19.996   41.024
0.9380        -167.6627     -228.89      -293.98        65.09   259.0     -0.540     -0.549     -0.609   19.797   19.997   41.026
0.9390        -167.7223     -228.95      -293.04        64.09   255.0     -0.427     -0.542     -0.577   19.798   19.998   41.028
0.9400        -167.7106     -228.95      -292.67        63.72   253.6     -0.399     -0.545     -0.513   19.799   19.998   41.030
0.9410        -167.6660     -228.91      -293.50        64.59   257.0     -0.446     -0.558     -0.458   19.800   19.999   41.032
0.9420        -167.6292     -228.88      -294.49        65.61   261.1     -0.545     -0.583     -0.467   19.801   19.999   41.034
0.9430        -167.5783     -228.83      -294.14        65.30   259.9     -0.666     -0.623     -0.549   19.802   20.000   41.036
0.9440        -167.5570     -228.82      -293.25        64.43   256.4     -0.756     -0.652     -0.627   19.803   20.001   41.038
0.9450        -167.6368     -228.91      -293.71        64.80   257.9     -0.760     -0.650     -0.630   19.804   20.001   41.040
0.9460        -167.6949     -228.98      -294.93        65.95   262.5     -0.658     -0.620     -0.559   19.805   20.002   41.042
0.9470        -167.6999     -228.99      -295.05        66.06   262.9     -0.501     -0.580     -0.477   19.806   20.003   41.044
0.9480        -167.6929     -228.99      -294.04        65.06   258.9     -0.374     -0.543     -0.419   19.806   20.003   41.046
0.9490        -167.7233     -229.02      -293.22        64.19   255.5     -0.335     -0.526     -0.389   19.807   20.004   41.048
0.9500        -167.7028     -229.01      -293.28        64.27   255.8     -0.385     -0.534     -0.391   19.808   20.005   41.050
0.9510        -167.6874     -229.00      -293.82        64.82   257.9     -0.501     -0.566     -0.450   19.809   20.005   41.052
0.9520        -167.6293     -228.95      -293.44        64.49   256.6     -0.656     -0.608     -0.557   19.810   20.006   41.054
0.9530        -167.5251     -228.85      -292.20        63.35   252.1     -0.791     -0.641     -0.645   19.811   20.007   41.056
0.9540        -167.5009     -228.84      -291.84        63.00   250.7     -0.823     -0.643     -0.651   19.812   20.007   41.058
0.9550        -167.4468     -228.79      -292.50        63.71   253.5     -0.723     -0.606     -0.568   19.813   20.008   41.060
0.9560        -167.4810     -228.83      -292.85        64.02   254.8     -0.557     -0.557     -0.453   19.814   20.009   41.062
0.9570        -167.5285     -228.89      -292.26        63.37   252.2     -0.425     -0.515     -0.361   19.815   20.009   41.064
0.9580        -167.5366     -228.90      -291.41        62.51   248.8     -0.372     -0.482     -0.341   19.815   20.010   41.066
0.9590        -167.5048     -228.87      -291.22        62.35   248.1     -0.399     -0.458     -0.410   19.816   20.011   41.068
0.9600        -167.5464     -228.92      -292.05        63.13   251.2     -0.494     -0.451     -0.534   19.817   20.011   41.070
0.9610        -167.5365     -228.92      -292.60        63.68   253.4     -0.643     -0.487     -0.664   19.818   20.012   41.071
0.9620        -167.4720     -228.86      -292.10        63.23   251.6     -0.788     -0.557     -0.735   19.819   20.013   41.073
0.9630        -167.4750     -228.87      -291.82        62.95   250.5     -0.830     -0.613     -0.713   19.820   20.013   41.075
0.9640        -167.4675     -228.88      -292.60        63.73   253.6     -0.719     -0.624     -0.621   19.821   20.014   41.077
0.9650        -167.5270     -228.94      -293.61        64.66   257.3     -0.495     -0.590     -0.502   19.822   20.015   41.079
0.9660        -167.5193     -228.94      -293.78        64.84   258.0     -0.274     -0.542     -0.414   19.823   20.015   41.081
0.9670        -167.4476     -228.87      -293.32        64.44   256.5     -0.153     -0.503     -0.388   19.823   20.016   41.083
0.9680        -167.4021     -228.83      -293.23        64.40   256.3     -0.170     -0.469     -0.411   19.824   20.017   41.085
0.9690        -167.4423     -228.88      -294.14        65.26   259.7     -0.321     -0.456     -0.451   19.825   20.017   41.087
0.9700        -167.4240     -228.86      -294.95        66.08   263.0     -0.567     -0.484     -0.488   19.826   20.018   41.089
0.9710        -167.3933     -228.84      -294.81        65.97   262.5     -0.810     -0.531     -0.499   19.827   20.018   41.091
0.9720        -167.4083     -228.86      -294.66        65.79   261.8     -0.930     -0.553     -0.498   19.828   20.019   41.093
0.9730        -167.4891     -228.95      -295.32        66.37   264.1     -0.855     -0.526     -0.495   19.829   20.020   41.095
0.9740        -167.4869     -228.96      -295.86        66.90   266.2     -0.629     -0.481     -0.483   19.830   20.020   41.097
0.9750        -167.3937     -228.87      -295.65        66.78   265.7     -0.370     -0.451     -0.450   19.831   20.021   41.098
0.9760        -167.3933     -228.87      -294.94        66.07   262.9     -0.195     -0.446     -0.425   19.831   20.022   41.100
0.9770        -167.4879     -228.97      -294.44        65.47   260.5     -0.153     -0.440     -0.428   19.832   20.022   41.102
0.9780        -167.5230     -229.01      -294.69        65.68   261.4     -0.255     -0.442     -0.466   19.833   20.023   41.104
0.9790        -167.4395     -228.94      -294.68        65.74   261.6     -0.474     -0.487     -0.525   19.834   20.024   41.106
0.9800        -167.3072     -228.81      -293.69        64.88   258.2     -0.721     -0.567     -0.587   19.835   20.024   41.108
0.9810        -167.2511     -228.76      -292.99        64.23   255.6     -0.862     -0.623     -0.638   19.836   20.025   41.110
0.9820        -167.3329     -228.85      -293.44        64.59   257.1     -0.814     -0.618     -0.668   19.837   20.025   41.112
0.9830        -167.1999     -228.73      -293.70        64.97   258.6     -0.595     -0.572     -0.657   19.837   20.026   41.114
0.9840        -167.2811     -228.82      -293.58        64.76   257.7     -0.323     -0.537     -0.606   19.838   20.027   41.115
0.9850        -167.2955     -228.84      -293.05        64.21   255.5     -0.119     -0.526     -0.527   19.839   20.027   41.117
0.9860        -167.2127     -228.76      -292.66        63.90   254.3     -0.063     -0.517     -0.448   19.840   20.028   41.119
0.9870        -167.2954     -228.84      -293.34        64.50   256.7     -0.192     -0.514     -0.401   19.841   20.029   41.121
0.9880        -167.3763     -228.93      -293.87        64.94   258.4     -0.473     -0.545     -0.396   19.842   20.029   41.123
0.9890        -167.3407     -228.90      -293.30        64.40   256.3     -0.798     -0.603     -0.423   19.843   20.030   41.125
0.9900        -167.2839     -228.85      -292.86        64.01   254.7     -1.016     -0.638     -0.472   19.843   20.030   41.127
0.9910        -167.5617     -229.14      -293.65        64.51   256.7     -1.015     -0.608     -0.534   19.844   20.031   41.129
0.9920        -167.5327     -229.12      -294.10        64.98   258.6     -0.791     -0.534     -0.581   19.845   20.032   41.130
0.9930        -167.2736     -228.87      -293.73        64.86   258.1     -0.451     -0.467     -0.571   19.846   20.032   41.132
0.9940        -167.3425     -228.94      -293.51        64.57   257.0     -0.156     -0.444     -0.506   19.847   20.033   41.134
0.9950        -167.3390     -228.94      -293.37        64.43   256.4     -0.010     -0.441     -0.415   19.848   20.034   41.136
0.9960        -167.3502     -228.95      -293.76        64.81   257.9     -0.075     -0.447     -0.350   19.849   20.034   41.138
0.9970        -167.4193     -229.03      -294.07        65.04   258.8     -0.338     -0.482     -0.342   19.849   20.035   41.140
0.9980        -167.4129     -229.03      -293.48        64.46   256.5     -0.692     -0.549     -0.389   19.850   20.035   41.142
0.9990        -167.3837     -229.00      -292.99        63.99   254.6     -0.967     -0.608     -0.477   19.851   20.036   41.143
1.0000        -167.3670     -229.00      -293.37        64.37   256.2     -1.028     -0.613     -0.562   19.852   20.037   41.145
1.0010        -167.3621     -229.00      -293.76        64.76   257.7     -0.854     -0.567     -0.595   19.853   20.037   41.147
1.0020        -167.3184     -228.96      -293.62        64.65   257.3     -0.537     -0.511     -0.546   19.854   20.038   41.149
1.0030        -167.3579     -229.01      -293.57        64.56   256.9     -0.214     -0.468     -0.436   19.855   20.038   41.151
1.0040        -167.4081     -229.06      -293.84        64.77   257.8     -0.021     -0.434     -0.322   19.855   20.039   41.153
1.0050        -167.3860     -229.04      -294.26        65.21   259.5     -0.039     -0.418     -0.253   19.856   20.040   41.154
1.0060        -167.3600     -229.02      -294.51        65.49   260.6     -0.266     -0.454     -0.253   19.857   20.040   41.156
1.0070        -167.3789     -229.04      -294.33        65.29   259.8     -0.604     -0.542     -0.313   19.858   20.041   41.158
1.0080        -167.3325     -229.00      -294.02        65.02   258.8     -0.901     -0.631     -0.395   19.859   20.041   41.160
1.0090        -167.1878     -228.87      -294.05        65.19   259.4     -1.015     -0.662     -0.456   19.860   20.042   41.162
1.0100        -167.3971     -229.09      -294.50        65.41   260.3     -0.902     -0.631     -0.479   19.860   20.043   41.163
1.0110        -167.4692     -229.16      -294.35        65.18   259.4     -0.620     -0.559     -0.448   19.861   20.043   41.165
1.0120        -167.4584     -229.16      -293.95        64.79   257.8     -0.304     -0.465     -0.359   19.862   20.044   41.167
1.0130        -167.3593     -229.06      -293.65        64.58   257.0     -0.103     -0.374     -0.264   19.863   20.044   41.169
1.0140        -167.2926     -229.00      -293.59        64.59   257.0     -0.101     -0.316     -0.217   19.864   20.045   41.170
1.0150        -167.2561     -228.97      -293.65        64.69   257.4     -0.299     -0.329     -0.236   19.865   20.046   41.172
1.0160        -167.2768     -228.99      -293.47        64.48   256.6     -0.619     -0.414     -0.309   19.865   20.046   41.174
1.0170        -167.2964     -229.02      -292.96        63.94   254.5     -0.919     -0.525     -0.401   19.866   20.047   41.176
1.0180        -167.3043     -229.03      -292.83        63.80   253.9     -1.053     -0.604     -0.480   19.867   20.047   41.177
1.0190        -167.3283     -229.06      -293.07        64.01   254.7     -0.955     -0.624     -0.519   19.868   20.048   41.179
1.0200        -167.3051     -229.05      -292.83        63.79   253.8     -0.670     -0.592     -0.501   19.869   20.049   41.181
1.0210        -167.2811     -229.03      -292.47        63.44   252.5     -0.323     -0.532     -0.439   19.870   20.049   41.182
1.0220        -167.3081     -229.06      -292.59        63.53   252.8     -0.063     -0.466     -0.367   19.870   20.050   41.184
1.0230        -167.3414     -229.10      -292.93        63.83   254.0      0.009     -0.417     -0.325   19.871   20.050   41.186
1.0240        -167.3429     -229.10      -293.28        64.18   255.4     -0.118     -0.421     -0.340   19.872   20.051   41.187
1.0250        -167.3169     -229.08      -293.65        64.57   257.0     -0.374     -0.489     -0.412   19.873   20.051   41.189
1.0260        -167.3410     -229.11      -293.73        64.62   257.2     -0.646     -0.583     -0.503   19.874   20.052   41.191
1.0270        -167.3098     -229.09      -293.46        64.37   256.2     -0.823     -0.654     -0.569   19.874   20.053   41.192
1.0280        -167.2898     -229.07      -293.42        64.34   256.1     -0.825     -0.664     -0.580   19.875   20.053   41.194
1.0290        -167.2806     -229.07      -293.40        64.33   256.0     -0.636     -0.606     -0.535   19.876   20.054   41.196
1.0300        -167.2793     -229.08      -293.28        64.20   255.5     -0.341     -0.502     -0.457   19.877   20.054   41.197
1.0310        -167.3091     -229.11      -293.44        64.33   256.0     -0.094     -0.391     -0.382   19.878   20.055   41.199
1.0320        -167.3388     -229.14      -293.61        64.47   256.6     -0.021     -0.311     -0.337   19.879   20.055   41.201
1.0330        -167.3497     -229.16      -293.66        64.50   256.7     -0.140     -0.298     -0.344   19.879   20.056   41.202
1.0340        -167.3574     -229.17      -293.90        64.74   257.6     -0.383     -0.369     -0.402   19.880   20.057   41.204
1.0350        -167.3533     -229.17      -294.02        64.85   258.1     -0.650     -0.490     -0.475   19.881   20.057   41.206
1.0360        -167.3325     -229.15      -293.56        64.40   256.3     -0.845     -0.595     -0.519   19.882   20.058   41.207
1.0370        -167.2977     -229.13      -292.99        63.86   254.1     -0.886     -0.629     -0.511   19.882   20.058   41.209
1.0380        -167.2781     -229.11      -292.75        63.63   253.2     -0.733     -0.576     -0.464   19.883   20.059   41.211
1.0390        -167.2770     -229.12      -292.70        63.58   253.0     -0.446     -0.470     -0.403   19.884   20.059   41.212
1.0400        -167.3296     -229.17      -292.72        63.55   252.9     -0.175     -0.375     -0.356   19.885   20.060   41.214
1.0410        -167.4685     -229.32      -292.65        63.33   252.0     -0.069     -0.329     -0.342   19.886   20.061   41.215
1.0420        -167.3792     -229.23      -292.43        63.20   251.5     -0.172     -0.349     -0.368   19.886   20.061   41.217
1.0430        -167.4837     -229.34      -292.96        63.62   253.2     -0.401     -0.432     -0.429   19.887   20.062   41.219
1.0440        -167.4591     -229.32      -293.41        64.09   255.1     -0.651     -0.550     -0.499   19.888   20.062   41.220
1.0450        -167.4479     -229.31      -293.37        64.05   254.9     -0.835     -0.636     -0.540   19.889   20.063   41.222
1.0460        -167.4967     -229.37      -293.08        63.71   253.5     -0.883     -0.640     -0.534   19.890   20.063   41.223
1.0470        -167.4723     -229.35      -292.84        63.49   252.7     -0.737     -0.553     -0.481   19.890   20.064   41.225
1.0480        -167.4471     -229.33      -293.05        63.71   253.5     -0.435     -0.430     -0.418   19.891   20.064   41.227
1.0490        -167.4795     -229.37      -293.29        63.92   254.4     -0.125     -0.329     -0.385   19.892   20.065   41.228
1.0500        -167.4073     -229.30      -292.98        63.69   253.4      0.034     -0.283     -0.389   19.893   20.065   41.230
1.0510        -167.3518     -229.25      -293.03        63.78   253.8     -0.020     -0.306     -0.421   19.893   20.066   41.231
1.0520        -167.3463     -229.24      -293.79        64.55   256.9     -0.232     -0.402     -0.475   19.894   20.066   41.233
1.0530        -167.3840     -229.29      -294.31        65.02   258.8     -0.496     -0.537     -0.537   19.895   20.067   41.234
1.0540        -167.3800     -229.29      -294.25        64.96   258.5     -0.726     -0.638     -0.575   19.896   20.068   41.236
1.0550        -167.5043     -229.42      -294.08        64.66   257.3     -0.834     -0.649     -0.557   19.896   20.068   41.237
1.0560        -167.4858     -229.41      -293.59        64.19   255.4     -0.751     -0.555     -0.470   19.897   20.069   41.239
1.0570        -167.3500     -229.28      -293.47        64.19   255.4     -0.509     -0.404     -0.358   19.898   20.069   41.241
1.0580        -167.3908     -229.32      -293.70        64.37   256.2     -0.224     -0.263     -0.287   19.899   20.070   41.242
1.0590        -167.3713     -229.30      -293.16        63.86   254.1     -0.032     -0.187     -0.297   19.899   20.070   41.244
1.0600        -167.4328     -229.37      -293.10        63.73   253.6     -0.011     -0.198     -0.378   19.900   20.071   41.245
1.0610        -167.5854     -229.52      -294.19        64.67   257.3     -0.157     -0.299     -0.498   19.901   20.071   41.247
1.0620        -167.5051     -229.45      -294.62        65.17   259.4     -0.396     -0.464     -0.614   19.902   20.072   41.248
1.0630        -167.4771     -229.42      -294.24        64.81   257.9     -0.626     -0.635     -0.681   19.902   20.072   41.250
1.0640        -167.5420     -229.50      -294.18        64.68   257.4     -0.739     -0.725     -0.644   19.903   20.073   41.251
1.0650        -167.6518     -229.61      -294.40        64.78   257.8     -0.678     -0.696     -0.511   19.904   20.073   41.253
1.0660        -167.7472     -229.71      -294.60        64.88   258.2     -0.458     -0.571     -0.341   19.905   20.074   41.254
1.0670        -167.7264     -229.70      -294.46        64.77   257.7     -0.182     -0.420     -0.238   19.905   20.074   41.256
1.0680        -167.6600     -229.63      -293.81        64.18   255.4      0.030     -0.289     -0.244   19.906   20.075   41.257
1.0690        -167.6293     -229.60      -293.73        64.13   255.2      0.087     -0.215     -0.329   19.907   20.075   41.259
1.0700        -167.5859     -229.56      -294.45        64.89   258.3     -0.038     -0.241     -0.454   19.907   20.076   41.260
1.0710        -167.5241     -229.50      -294.76        65.26   259.7     -0.290     -0.377     -0.570   19.908   20.076   41.262
1.0720        -167.4778     -229.46      -294.21        64.75   257.7     -0.576     -0.570     -0.629   19.909   20.077   41.263
1.0730        -167.3354     -229.33      -293.55        64.22   255.6     -0.783     -0.710     -0.579   19.909   20.077   41.265
1.0740        -167.4513     -229.45      -293.77        64.32   256.0     -0.821     -0.713     -0.437   19.910   20.078   41.266
1.0750        -167.5487     -229.55      -294.21        64.66   257.3     -0.680     -0.579     -0.293   19.911   20.078   41.268
1.0760        -167.4888     -229.50      -293.81        64.31   255.9     -0.417     -0.378     -0.228   19.912   20.079   41.269
1.0770        -167.3156     -229.32      -292.74        63.41   252.4     -0.134     -0.206     -0.275   19.912   20.079   41.270
1.0780        -167.3412     -229.35      -292.76        63.41   252.3      0.064     -0.126     -0.388   19.913   20.080   41.272
1.0790        -167.4143     -229.43      -293.77        64.34   256.1      0.083     -0.180     -0.517   19.914   20.080   41.273
1.0800        -167.4064     -229.42      -294.29        64.87   258.1     -0.087     -0.375     -0.624   19.914   20.080   41.275
1.0810        -167.3625     -229.38      -293.83        64.45   256.5     -0.368     -0.640     -0.668   19.915   20.081   41.276
1.0820        -167.3427     -229.37      -293.30        63.93   254.4     -0.626     -0.836     -0.621   19.916   20.081   41.278
1.0830        -167.5752     -229.61      -293.93        64.32   256.0     -0.731     -0.841     -0.495   19.916   20.082   41.279
1.0840        -167.6527     -229.69      -294.70        65.01   258.7     -0.650     -0.681     -0.372   19.917   20.082   41.281
1.0850        -167.5253     -229.57      -294.15        64.59   257.0     -0.430     -0.453     -0.302   19.918   20.083   41.282
1.0860        -167.4890     -229.53      -292.97        63.43   252.4     -0.170     -0.247     -0.281   19.918   20.083   41.283
1.0870        -167.4226     -229.47      -292.77        63.30   251.9      0.003     -0.136     -0.301   19.919   20.084   41.285
1.0880        -167.4029     -229.45      -293.64        64.19   255.5      0.002     -0.161     -0.343   19.920   20.084   41.286
1.0890        -167.4164     -229.47      -294.08        64.61   257.1     -0.182     -0.335     -0.400   19.920   20.085   41.288
1.0900        -167.3106     -229.36      -293.46        64.10   255.1     -0.467     -0.593     -0.446   19.921   20.085   41.289
1.0910        -167.3333     -229.39      -292.82        63.43   252.4     -0.716     -0.803     -0.462   19.921   20.086   41.290
1.0920        -167.5460     -229.61      -293.23        63.62   253.2     -0.810     -0.846     -0.446   19.922   20.086   41.292
1.0930        -167.6490     -229.72      -294.00        64.28   255.8     -0.724     -0.703     -0.409   19.923   20.086   41.293
1.0940        -167.6246     -229.70      -293.56        63.86   254.2     -0.523     -0.463     -0.374   19.923   20.087   41.294
1.0950        -167.3404     -229.42      -292.02        62.60   249.1     -0.288     -0.241     -0.343   19.924   20.087   41.296
1.0960        -167.3606     -229.44      -291.74        62.30   247.9     -0.101     -0.125     -0.335   19.925   20.088   41.297
1.0970        -167.2989     -229.38      -292.66        63.28   251.8     -0.034     -0.141     -0.343   19.925   20.088   41.298
1.0980        -167.2542     -229.34      -293.50        64.16   255.3     -0.130     -0.296     -0.376   19.926   20.089   41.300
1.0990        -167.2317     -229.32      -293.33        64.02   254.8     -0.353     -0.540     -0.423   19.926   20.089   41.301
1.1000        -167.2893     -229.38      -292.83        63.45   252.5     -0.590     -0.749     -0.460   19.927   20.090   41.302
1.1010        -167.3968     -229.49      -293.36        63.87   254.2     -0.721     -0.790     -0.465   19.928   20.090   41.304
1.1020        -167.4474     -229.55      -294.48        64.93   258.4     -0.711     -0.646     -0.451   19.928   20.090   41.305
1.1030        -167.3229     -229.43      -294.17        64.75   257.7     -0.593     -0.412     -0.413   19.929   20.091   41.306
1.1040        -167.3928     -229.50      -293.01        63.51   252.7     -0.421     -0.213     -0.345   19.929   20.091   41.308
1.1050        -167.4460     -229.56      -292.62        63.06   251.0     -0.254     -0.124     -0.265   19.930   20.092   41.309
1.1060        -167.5491     -229.66      -293.41        63.75   253.7     -0.166     -0.152     -0.208   19.931   20.092   41.310
1.1070        -167.6020     -229.72      -294.05        64.34   256.0     -0.207     -0.275     -0.209   19.931   20.092   41.312
1.1080        -167.6200     -229.74      -293.79        64.05   254.9     -0.352     -0.453     -0.274   19.932   20.093   41.313
1.1090        -167.5336     -229.66      -293.03        63.37   252.2     -0.519     -0.613     -0.367   19.932   20.093   41.314
1.1100        -167.4910     -229.62      -293.03        63.42   252.4     -0.620     -0.671     -0.437   19.933   20.094   41.315
1.1110        -167.4938     -229.62      -293.82        64.20   255.5     -0.633     -0.604     -0.453   19.934   20.094   41.317
1.1120        -167.4839     -229.62      -293.66        64.04   254.8     -0.587     -0.455     -0.408   19.934   20.095   41.318
1.1130        -167.4583     -229.60      -292.22        62.63   249.2     -0.508     -0.297     -0.324   19.935   20.095   41.319
1.1140        -167.4140     -229.56      -291.22        61.67   245.4     -0.413     -0.179     -0.236   19.935   20.095   41.320
1.1150        -167.4416     -229.58      -291.46        61.88   246.2     -0.339     -0.121     -0.184   19.936   20.096   41.321
1.1160        -167.5161     -229.66      -292.03        62.36   248.2     -0.332     -0.136     -0.199   19.936   20.096   41.323
1.1170        -167.5004     -229.65      -291.95        62.30   247.9     -0.406     -0.231     -0.271   19.937   20.096   41.324
1.1180        -167.4653     -229.62      -291.45        61.83   246.1     -0.534     -0.380     -0.353   19.938   20.097   41.325
1.1190        -167.4587     -229.61      -291.51        61.89   246.3     -0.650     -0.510     -0.394   19.938   20.097   41.326
1.1200        -167.5119     -229.67      -292.61        62.94   250.5     -0.697     -0.561     -0.386   19.939   20.098   41.327
1.1210        -167.5081     -229.67      -293.36        63.69   253.5     -0.667     -0.525     -0.350   19.939   20.098   41.329
1.1220        -167.5118     -229.68      -292.87        63.20   251.5     -0.577     -0.425     -0.303   19.940   20.098   41.330
1.1230        -167.5270     -229.70      -292.13        62.43   248.4     -0.466     -0.300     -0.264   19.940   20.099   41.331
1.1240        -167.4452     -229.62      -292.02        62.40   248.3     -0.367     -0.184     -0.240   19.941   20.099   41.332
1.1250        -167.4669     -229.64      -292.63        62.99   250.7     -0.307     -0.116     -0.242   19.942   20.099   41.333
1.1260        -167.4697     -229.64      -293.12        63.48   252.6     -0.312     -0.136     -0.273   19.942   20.100   41.334
1.1270        -167.3681     -229.55      -292.95        63.40   252.3     -0.372     -0.239     -0.311   19.943   20.100   41.335
1.1280        -167.3758     -229.56      -292.83        63.27   251.8     -0.453     -0.379     -0.355   19.943   20.100   41.336
1.1290        -167.3481     -229.53      -293.43        63.90   254.3     -0.493     -0.480     -0.386   19.944   20.101   41.338
1.1300        -167.3189     -229.50      -294.54        65.04   258.8     -0.478     -0.493     -0.401   19.944   20.101   41.339
1.1310        -167.2621     -229.45      -294.96        65.51   260.7     -0.440     -0.411     -0.394   19.945   20.101   41.340
1.1320        -167.2204     -229.41      -294.22        64.80   257.9     -0.416     -0.276     -0.370   19.945   20.102   41.341
1.1330        -167.2645     -229.46      -293.38        63.93   254.4     -0.391     -0.141     -0.321   19.946   20.102   41.342
1.1340        -167.3612     -229.56      -293.75        64.20   255.5     -0.344     -0.068     -0.266   19.946   20.102   41.343
1.1350        -167.4630     -229.66      -294.71        65.05   258.9     -0.283     -0.092     -0.227   19.947   20.103   41.344
1.1360        -167.4054     -229.60      -294.59        64.98   258.6     -0.271     -0.220     -0.214   19.948   20.103   41.345
1.1370        -167.3899     -229.59      -293.69        64.10   255.1     -0.339     -0.399     -0.223   19.948   20.103   41.346
1.1380        -167.3086     -229.51      -293.19        63.68   253.4     -0.429     -0.532     -0.252   19.949   20.104   41.347
1.1390        -167.2835     -229.49      -293.75        64.26   255.7     -0.472     -0.551     -0.305   19.949   20.104   41.348
1.1400        -167.4434     -229.65      -294.60        64.95   258.5     -0.462     -0.464     -0.370   19.950   20.104   41.349
1.1410        -167.4225     -229.63      -294.17        64.54   256.8     -0.442     -0.324     -0.409   19.950   20.104   41.350
1.1420        -167.3902     -229.60      -292.95        63.35   252.1     -0.416     -0.185     -0.404   19.951   20.105   41.351
1.1430        -167.4305     -229.65      -292.64        62.99   250.7     -0.352     -0.093     -0.371   19.951   20.105   41.352
1.1440        -167.4254     -229.64      -293.33        63.69   253.4     -0.265     -0.087     -0.329   19.952   20.105   41.353
1.1450        -167.3708     -229.59      -293.67        64.07   255.0     -0.231     -0.176     -0.300   19.952   20.106   41.354
1.1460        -167.2927     -229.51      -292.98        63.47   252.6     -0.295     -0.314     -0.302   19.953   20.106   41.355
1.1470        -167.3137     -229.54      -292.23        62.69   249.5     -0.411     -0.415     -0.338   19.953   20.106   41.356
1.1480        -167.3979     -229.62      -292.50        62.88   250.2     -0.500     -0.426     -0.382   19.954   20.106   41.357
1.1490        -167.4551     -229.68      -293.51        63.82   254.0     -0.538     -0.361     -0.402   19.954   20.107   41.358
1.1500        -167.3695     -229.60      -293.62        64.01   254.7     -0.543     -0.266     -0.371   19.955   20.107   41.359
1.1510        -167.4184     -229.65      -292.60        62.95   250.5     -0.514     -0.185     -0.308   19.955   20.107   41.359
1.1520        -167.4552     -229.69      -291.76        62.07   247.0     -0.422     -0.142     -0.247   19.956   20.107   41.360
1.1530        -167.4790     -229.72      -292.03        62.31   248.0     -0.276     -0.153     -0.222   19.956   20.108   41.361
1.1540        -167.4693     -229.71      -292.65        62.94   250.5     -0.159     -0.224     -0.242   19.957   20.108   41.362
1.1550        -167.3620     -229.60      -292.47        62.87   250.2     -0.156     -0.344     -0.288   19.957   20.108   41.363
1.1560        -167.3319     -229.57      -291.68        62.10   247.1     -0.260     -0.463     -0.328   19.958   20.108   41.364
1.1570        -167.4497     -229.69      -291.53        61.83   246.1     -0.389     -0.535     -0.350   19.958   20.108   41.365
1.1580        -167.5741     -229.82      -292.27        62.45   248.5     -0.475     -0.532     -0.349   19.958   20.109   41.366
1.1590        -167.6106     -229.86      -292.58        62.72   249.6     -0.509     -0.455     -0.331   19.959   20.109   41.366
1.1600        -167.5703     -229.82      -291.87        62.05   246.9     -0.502     -0.337     -0.310   19.959   20.109   41.367
1.1610        -167.5146     -229.77      -291.02        61.25   243.8     -0.443     -0.224     -0.297   19.960   20.109   41.368
1.1620        -167.5305     -229.79      -290.96        61.18   243.5     -0.334     -0.164     -0.295   19.960   20.109   41.369
1.1630        -167.5494     -229.81      -291.80        62.00   246.7     -0.231     -0.189     -0.303   19.961   20.110   41.370
1.1640        -167.5571     -229.81      -292.75        62.93   250.5     -0.210     -0.294     -0.311   19.961   20.110   41.370
1.1650        -167.5060     -229.77      -292.81        63.05   250.9     -0.283     -0.435     -0.314   19.962   20.110   41.371
1.1660        -167.3720     -229.63      -292.65        63.02   250.8     -0.391     -0.543     -0.319   19.962   20.110   41.372
1.1670        -167.4405     -229.70      -293.50        63.79   253.9     -0.475     -0.539     -0.315   19.962   20.110   41.373
1.1680        -167.3860     -229.65      -294.32        64.67   257.3     -0.531     -0.406     -0.305   19.963   20.111   41.374
1.1690        -167.3459     -229.61      -294.49        64.88   258.2     -0.557     -0.188     -0.292   19.963   20.111   41.374
1.1700        -167.2695     -229.54      -294.03        64.49   256.6     -0.535      0.018     -0.287   19.964   20.111   41.375
1.1710        -167.2201     -229.49      -293.42        63.93   254.4     -0.451      0.125     -0.286   19.964   20.111   41.376
1.1720        -167.3064     -229.58      -293.57        63.99   254.7     -0.336      0.093     -0.273   19.965   20.111   41.377
1.1730        -167.4475     -229.72      -294.39        64.67   257.4     -0.271     -0.062     -0.233   19.965   20.111   41.377
1.1740        -167.5036     -229.78      -294.60        64.83   258.0     -0.306     -0.287     -0.166   19.965   20.111   41.378
1.1750        -167.5130     -229.79      -294.17        64.39   256.2     -0.410     -0.499     -0.099   19.966   20.112   41.379
1.1760        -167.5455     -229.82      -294.17        64.35   256.1     -0.508     -0.607     -0.068   19.966   20.112   41.379
1.1770        -167.5819     -229.86      -294.57        64.71   257.5     -0.549     -0.550     -0.092   19.967   20.112   41.380
1.1780        -167.6333     -229.91      -294.88        64.96   258.5     -0.528     -0.353     -0.165   19.967   20.112   41.381
1.1790        -167.6161     -229.90      -294.53        64.64   257.2     -0.457     -0.128     -0.260   19.967   20.112   41.381
1.1800        -167.4955     -229.78      -293.56        63.78   253.8     -0.341      0.011     -0.333   19.968   20.112   41.382
1.1810        -167.3553     -229.64      -292.79        63.15   251.3     -0.219      0.003     -0.354   19.968   20.112   41.382
1.1820        -167.3765     -229.66      -292.79        63.13   251.2     -0.158     -0.125     -0.308   19.969   20.112   41.383
1.1830        -167.4262     -229.71      -293.00        63.28   251.8     -0.203     -0.310     -0.226   19.969   20.112   41.384
1.1840        -167.4133     -229.70      -292.90        63.20   251.5     -0.320     -0.486     -0.170   19.969   20.113   41.384
1.1850        -167.3283     -229.62      -292.69        63.07   251.0     -0.438     -0.577     -0.196   19.970   20.113   41.385
1.1860        -167.4098     -229.70      -292.86        63.16   251.4     -0.506     -0.512     -0.295   19.970   20.113   41.385
1.1870        -167.4172     -229.71      -293.27        63.56   252.9     -0.526     -0.311     -0.406   19.971   20.113   41.386
1.1880        -167.3581     -229.65      -293.44        63.79   253.9     -0.505     -0.076     -0.464   19.971   20.113   41.387
1.1890        -167.2682     -229.56      -293.11        63.55   252.9     -0.447      0.076     -0.441   19.971   20.113   41.387
1.1900        -167.2613     -229.56      -292.69        63.13   251.2     -0.375      0.080     -0.347   19.972   20.113   41.388
1.1910        -167.2357     -229.53      -292.46        62.93   250.4     -0.333     -0.050     -0.200   19.972   20.113   41.388
1.1920        -167.2908     -229.59      -292.90        63.31   252.0     -0.353     -0.254     -0.046   19.972   20.113   41.389
1.1930        -167.3578     -229.66      -293.61        63.95   254.5     -0.417     -0.469      0.040   19.973   20.113   41.389
1.1940        -167.4031     -229.70      -293.77        64.07   255.0     -0.482     -0.621      0.010   19.973   20.113   41.390
1.1950        -167.3816     -229.68      -293.43        63.75   253.7     -0.523     -0.640     -0.112   19.973   20.113   41.390
1.1960        -167.3351     -229.64      -293.53        63.89   254.3     -0.528     -0.509     -0.245   19.974   20.113   41.391
1.1970        -167.2860     -229.59      -294.11        64.52   256.8     -0.492     -0.293     -0.325   19.974   20.113   41.391
1.1980        -167.2474     -229.55      -294.31        64.76   257.7     -0.421     -0.110     -0.330   19.975   20.113   41.391
1.1990        -167.1847     -229.49      -293.76        64.27   255.8     -0.342     -0.051     -0.261   19.975   20.113   41.392
1.2000        -167.2041     -229.51      -293.05        63.54   252.8     -0.287     -0.132     -0.147   19.975   20.113   41.392
1.2010        -167.3293     -229.64      -293.17        63.53   252.8     -0.270     -0.296     -0.054   19.976   20.113   41.393
1.2020        -167.4708     -229.78      -293.99        64.22   255.6     -0.281     -0.486     -0.072   19.976   20.113   41.393
1.2030        -167.6350     -229.94      -294.21        64.26   255.7     -0.306     -0.633     -0.231   19.976   20.113   41.393
1.2040        -167.6872     -230.00      -293.52        63.53   252.8     -0.340     -0.665     -0.457   19.977   20.113   41.394
1.2050        -167.6440     -229.95      -293.29        63.34   252.1     -0.375     -0.554     -0.628   19.977   20.113   41.394
1.2060        -167.5758     -229.89      -293.78        63.90   254.3     -0.398     -0.349     -0.655   19.977   20.113   41.395
1.2070        -167.4633     -229.78      -294.01        64.23   255.6     -0.395     -0.151     -0.530   19.977   20.113   41.395
1.2080        -167.4509     -229.76      -293.57        63.80   253.9     -0.373     -0.053     -0.325   19.978   20.113   41.395
1.2090        -167.3622     -229.68      -292.59        62.92   250.4     -0.339     -0.085     -0.122   19.978   20.113   41.396
1.2100        -167.3509     -229.67      -292.39        62.72   249.6     -0.299     -0.219     -0.006   19.978   20.113   41.396
1.2110        -167.3779     -229.69      -293.11        63.42   252.4     -0.266     -0.408     -0.035   19.979   20.113   41.396
1.2120        -167.3921     -229.71      -293.43        63.73   253.6     -0.263     -0.581     -0.196   19.979   20.113   41.397
1.2130        -167.4846     -229.80      -293.15        63.35   252.1     -0.314     -0.659     -0.411   19.979   20.113   41.397
1.2140        -167.4918     -229.81      -293.12        63.31   252.0     -0.394     -0.591     -0.563   19.980   20.113   41.397
1.2150        -167.3991     -229.72      -293.40        63.69   253.5     -0.455     -0.405     -0.594   19.980   20.113   41.397
1.2160        -167.4004     -229.72      -293.60        63.88   254.2     -0.452     -0.186     -0.504   19.980   20.113   41.398
1.2170        -167.4290     -229.75      -293.43        63.69   253.4     -0.393     -0.028     -0.342   19.980   20.113   41.398
1.2180        -167.3373     -229.66      -292.69        63.03   250.9     -0.307      0.011     -0.175   19.981   20.113   41.398
1.2190        -167.2848     -229.61      -292.16        62.56   248.9     -0.222     -0.090     -0.062   19.981   20.113   41.398
1.2200        -167.2352     -229.56      -292.18        62.63   249.2     -0.158     -0.320     -0.056   19.981   20.113   41.399
1.2210        -167.2287     -229.55      -292.26        62.71   249.6     -0.136     -0.596     -0.166   19.982   20.113   41.399
1.2220        -167.3018     -229.62      -292.26        62.64   249.3     -0.177     -0.786     -0.356   19.982   20.113   41.399
1.2230        -167.3642     -229.69      -292.57        62.89   250.3     -0.265     -0.803     -0.551   19.982   20.113   41.399
1.2240        -167.4328     -229.75      -293.08        63.32   252.0     -0.345     -0.650     -0.660   19.982   20.113   41.400
1.2250        -167.3613     -229.68      -293.22        63.53   252.8     -0.371     -0.413     -0.643   19.983   20.113   41.400
1.2260        -167.3000     -229.62      -293.28        63.65   253.3     -0.331     -0.176     -0.522   19.983   20.113   41.400
1.2270        -167.2448     -229.57      -293.12        63.55   252.9     -0.254     -0.018     -0.355   19.983   20.112   41.400
1.2280        -167.3417     -229.67      -293.00        63.34   252.1     -0.163     -0.005     -0.198   19.983   20.112   41.400
1.2290        -167.5063     -229.83      -293.02        63.19   251.5     -0.093     -0.177     -0.117   19.983   20.112   41.401
1.2300        -167.4227     -229.75      -292.82        63.07   251.0     -0.077     -0.466     -0.144   19.984   20.112   41.401
1.2310        -167.3732     -229.70      -293.01        63.32   252.0     -0.138     -0.720     -0.264   19.984   20.112   41.401
1.2320        -167.3141     -229.64      -293.52        63.88   254.2     -0.267     -0.824     -0.425   19.984   20.112   41.401
1.2330        -167.4457     -229.77      -294.00        64.23   255.6     -0.403     -0.754     -0.551   19.984   20.112   41.401
1.2340        -167.4191     -229.74      -294.03        64.29   255.9     -0.478     -0.562     -0.582   19.984   20.112   41.401
1.2350        -167.3022     -229.63      -294.17        64.54   256.8     -0.454     -0.323     -0.500   19.985   20.112   41.401
1.2360        -167.3235     -229.65      -294.60        64.95   258.5     -0.346     -0.126     -0.338   19.985   20.112   41.402
1.2370        -167.3341     -229.66      -294.72        65.06   258.9     -0.206     -0.066     -0.147   19.985   20.112   41.402
1.2380        -167.3344     -229.66      -294.17        64.51   256.7     -0.085     -0.200     -0.008   19.985   20.111   41.402
1.2390        -167.3585     -229.68      -293.53        63.84   254.1     -0.021     -0.468      0.015   19.985   20.111   41.402
1.2400        -167.4386     -229.76      -293.68        63.92   254.4     -0.048     -0.729     -0.086   19.986   20.111   41.402
1.2410        -167.4529     -229.78      -294.21        64.43   256.4     -0.180     -0.861     -0.281   19.986   20.111   41.402
1.2420        -167.3225     -229.65      -294.12        64.47   256.6     -0.380     -0.826     -0.497   19.986   20.111   41.402
1.2430        -167.3302     -229.66      -293.62        63.96   254.6     -0.547     -0.646     -0.638   19.986   20.111   41.402
1.2440        -167.2524     -229.58      -293.42        63.84   254.1     -0.601     -0.396     -0.648   19.986   20.111   41.402
1.2450        -167.3136     -229.64      -294.10        64.46   256.5     -0.519     -0.152     -0.532   19.986   20.111   41.402
1.2460        -167.3749     -229.70      -294.54        64.84   258.0     -0.356     -0.009     -0.360   19.986   20.111   41.402
1.2470        -167.4930     -229.82      -293.84        64.02   254.8     -0.180     -0.044     -0.232   19.987   20.110   41.402
1.2480        -167.5181     -229.84      -292.74        62.89   250.3     -0.048     -0.245     -0.196   19.987   20.110   41.402
1.2490        -167.5067     -229.83      -292.59        62.76   249.7     -0.006     -0.512     -0.245   19.987   20.110   41.402
1.2500        -167.6005     -229.93      -293.14        63.22   251.6     -0.087     -0.734     -0.351   19.987   20.110   41.402
1.2510        -167.5329     -229.86      -293.11        63.26   251.7     -0.285     -0.846     -0.469   19.987   20.110   41.402
1.2520        -167.3890     -229.71      -292.44        62.73   249.6     -0.514     -0.819     -0.539   19.987   20.110   41.402
1.2530        -167.2270     -229.55      -291.97        62.42   248.4     -0.653     -0.669     -0.521   19.987   20.110   41.402
1.2540        -167.1655     -229.49      -292.49        63.00   250.7     -0.624     -0.459     -0.423   19.987   20.109   41.402
1.2550        -167.2593     -229.58      -293.33        63.75   253.7     -0.452     -0.277     -0.292   19.987   20.109   41.402
1.2560        -167.3651     -229.69      -293.25        63.56   252.9     -0.237     -0.209     -0.191   19.988   20.109   41.402
1.2570        -167.4451     -229.77      -292.57        62.80   249.9     -0.066     -0.283     -0.149   19.988   20.109   41.402
1.2580        -167.4585     -229.78      -292.47        62.68   249.5     -0.002     -0.454     -0.174   19.988   20.109   41.402
1.2590        -167.4837     -229.81      -292.87        63.07   251.0     -0.069     -0.635     -0.261   19.988   20.109   41.402
1.2600        -167.5658     -229.89      -292.94        63.05   250.9     -0.261     -0.745     -0.384   19.988   20.109   41.402
1.2610        -167.5938     -229.92      -292.46        62.54   248.9     -0.521     -0.747     -0.500   19.988   20.108   41.402
1.2620        -167.4697     -229.79      -291.77        61.98   246.7     -0.730     -0.639     -0.563   19.988   20.108   41.402
1.2630        -167.5083     -229.83      -291.87        62.04   246.9     -0.769     -0.448     -0.549   19.988   20.108   41.402
1.2640        -167.6595     -229.98      -292.41        62.43   248.4     -0.625     -0.245     -0.495   19.988   20.108   41.402
1.2650        -167.8050     -230.13      -292.38        62.25   247.7     -0.375     -0.112     -0.451   19.988   20.108   41.402
1.2660        -167.8898     -230.21      -291.92        61.71   245.6     -0.128     -0.103     -0.437   19.988   20.108   41.402
1.2670        -167.8246     -230.15      -291.79        61.64   245.3      0.026     -0.222     -0.443   19.988   20.108   41.402
1.2680        -167.6591     -229.98      -291.95        61.97   246.6      0.036     -0.421     -0.470   19.988   20.107   41.401
1.2690        -167.5778     -229.90      -291.99        62.09   247.1     -0.106     -0.611     -0.524   19.989   20.107   41.401
1.2700        -167.5961     -229.92      -291.97        62.06   247.0     -0.367     -0.706     -0.597   19.989   20.107   41.401
1.2710        -167.5436     -229.86      -291.90        62.04   246.9     -0.637     -0.662     -0.646   19.989   20.107   41.401
1.2720        -167.5583     -229.88      -292.22        62.34   248.1     -0.777     -0.499     -0.634   19.989   20.107   41.401
1.2730        -167.6842     -230.00      -292.96        62.96   250.6     -0.711     -0.292     -0.569   19.989   20.107   41.401
1.2740        -167.7201     -230.04      -293.41        63.37   252.2     -0.479     -0.124     -0.480   19.989   20.106   41.401
1.2750        -167.6496     -229.97      -293.39        63.43   252.4     -0.202     -0.074     -0.379   19.989   20.106   41.401
1.2760        -167.5906     -229.91      -293.51        63.60   253.1     -0.000     -0.164     -0.277   19.989   20.106   41.401
1.2770        -167.6103     -229.93      -293.99        64.06   254.9      0.042     -0.350     -0.221   19.989   20.106   41.400
1.2780        -167.6586     -229.98      -294.34        64.37   256.2     -0.093     -0.538     -0.261   19.989   20.106   41.400
1.2790        -167.6498     -229.97      -294.32        64.35   256.1     -0.359     -0.654     -0.404   19.989   20.105   41.400
1.2800        -167.6226     -229.94      -294.00        64.06   254.9     -0.652     -0.665     -0.581   19.989   20.105   41.400
1.2810        -167.6779     -229.99      -293.79        63.80   253.9     -0.834     -0.580     -0.686   19.989   20.105   41.400
1.2820        -167.6762     -229.99      -293.88        63.89   254.2     -0.820     -0.445     -0.677   19.989   20.105   41.400
1.2830        -167.6627     -229.98      -293.87        63.89   254.3     -0.615     -0.313     -0.574   19.989   20.105   41.400
1.2840        -167.6499     -229.96      -293.35        63.39   252.3     -0.325     -0.237     -0.424   19.989   20.104   41.399
1.2850        -167.6600     -229.97      -292.99        63.02   250.8     -0.094     -0.241     -0.283   19.989   20.104   41.399
1.2860        -167.6712     -229.98      -293.24        63.26   251.7     -0.018     -0.305     -0.214   19.989   20.104   41.399
1.2870        -167.6556     -229.97      -293.60        63.64   253.2     -0.127     -0.388     -0.271   19.989   20.104   41.399
1.2880        -167.5862     -229.90      -293.61        63.71   253.5     -0.383     -0.447     -0.445   19.989   20.104   41.399
1.2890        -167.5229     -229.83      -293.35        63.52   252.8     -0.702     -0.452     -0.648   19.989   20.103   41.399
1.2900        -167.5777     -229.89      -293.27        63.38   252.2     -0.950     -0.400     -0.759   19.989   20.103   41.398
1.2910        -167.6529     -229.96      -293.61        63.65   253.3     -1.003     -0.309     -0.724   19.989   20.103   41.398
1.2920        -167.7228     -230.03      -293.97        63.94   254.5     -0.829     -0.216     -0.573   19.989   20.103   41.398
1.2930        -167.6641     -229.97      -293.64        63.67   253.4     -0.518     -0.167     -0.368   19.989   20.102   41.398
1.2940        -167.6414     -229.95      -293.31        63.36   252.2     -0.214     -0.188     -0.170   19.989   20.102   41.398
1.2950        -167.6332     -229.94      -293.56        63.62   253.2     -0.061     -0.277     -0.051   19.989   20.102   41.397
1.2960        -167.6455     -229.95      -293.98        64.03   254.8     -0.124     -0.380     -0.049   19.989   20.102   41.397
1.2970        -167.5850     -229.89      -294.00        64.11   255.1     -0.393     -0.456     -0.170   19.989   20.101   41.397
1.2980        -167.4575     -229.76      -293.59        63.83   254.0     -0.763     -0.487     -0.349   19.989   20.101   41.397
1.2990        -167.4935     -229.80      -293.34        63.54   252.9     -1.066     -0.469     -0.493   19.989   20.101   41.397
1.3000        -167.6555     -229.96      -293.44        63.49   252.7     -1.152     -0.409     -0.543   19.989   20.101   41.396
1.3010        -167.7210     -230.02      -293.46        63.43   252.4     -0.980     -0.317     -0.501   19.989   20.100   41.396
1.3020        -167.7166     -230.02      -293.16        63.14   251.3     -0.640     -0.220     -0.405   19.989   20.100   41.396
1.3030        -167.6326     -229.93      -292.75        62.82   250.0     -0.303     -0.162     -0.299   19.989   20.100   41.395
1.3040        -167.5227     -229.82      -292.69        62.87   250.2     -0.114     -0.172     -0.220   19.989   20.099   41.395
1.3050        -167.5931     -229.89      -293.16        63.27   251.8     -0.142     -0.238     -0.210   19.989   20.099   41.395
1.3060        -167.5781     -229.88      -293.57        63.69   253.5     -0.378     -0.322     -0.287   19.989   20.099   41.395
1.3070        -167.5055     -229.80      -293.65        63.84   254.1     -0.724     -0.379     -0.418   19.989   20.099   41.394
1.3080        -167.5857     -229.88      -293.70        63.81   254.0     -1.021     -0.385     -0.538   19.989   20.098   41.394
1.3090        -167.6323     -229.93      -293.83        63.90   254.3     -1.120     -0.346     -0.601   19.989   20.098   41.394
1.3100        -167.5939     -229.89      -294.07        64.18   255.4     -0.955     -0.266     -0.588   19.989   20.098   41.393
1.3110        -167.5792     -229.87      -294.21        64.34   256.0     -0.603     -0.180     -0.509   19.989   20.097   41.393
